Bruker Nano GmbH Berlin, Germany
Esprit 2.x

Date: 8/21/2023 3:56:23 PM
Real time: 85009
Life time: 83900
Pulse density: 8406

Primary energy: 10
Beam current: -1
Take off angle: 35
Tilt angle: 0
Azimut angle: 45

Detector type: Custom type
Window type: slew AP3.3
Detector thickness: 0.45
Si dead layer:0

Calibration, lin.: 4.998
Calibration, abs.: -477.257
Mn FWHM: 124.4
Fano factor: 0.109
Channels: 2069

Energy Counts
-0.4773     0
-0.4723     0
-0.4673     0
-0.4623     0
-0.4573     0
-0.4523     0
-0.4473     0
-0.4423     0
-0.4373     0
-0.4323     0
-0.4273     0
-0.4223     0
-0.4173     0
-0.4123     0
-0.4073     0
-0.4023     0
-0.3973     0
-0.3923     0
-0.3873     0
-0.3823     0
-0.3773     0
-0.3723     0
-0.3673     0
-0.3623     0
-0.3573     0
-0.3523     0
-0.3473     0
-0.3423     0
-0.3373     0
-0.3323     0
-0.3273     0
-0.3223     0
-0.3173     0
-0.3123     0
-0.3073     0
-0.3023     0
-0.2973     0
-0.2923     0
-0.2873     0
-0.2823     0
-0.2773     0
-0.2723     0
-0.2673     0
-0.2623     0
-0.2573     0
-0.2523     0
-0.2473     0
-0.2423     0
-0.2373     0
-0.2323     0
-0.2273     0
-0.2223     0
-0.2173     0
-0.2123     0
-0.2073     0
-0.2023     0
-0.1973     0
-0.1923     0
-0.1873     0
-0.1823     0
-0.1773     0
-0.1723     0
-0.1673     0
-0.1624     0
-0.1574     0
-0.1524     0
-0.1474     0
-0.1424     0
-0.1374     0
-0.1324     0
-0.1274     0
-0.1224     0
-0.1174     0
-0.1124     0
-0.1074     0
-0.1024     0
-0.0974     0
-0.0924     0
-0.0874     0
-0.0824     0
-0.0774     1
-0.0724     4
-0.0674     7
-0.0624    20
-0.0574    52
-0.0524   151
-0.0474   292
-0.0424   651
-0.0374  1250
-0.0324  2326
-0.0274  3670
-0.0224  5533
-0.0174  7813
-0.0124  9797
-0.0074 11498
-0.0024 12585
 0.0026 12357
 0.0076 11620
 0.0126  9826
 0.0176  7776
 0.0226  5637
 0.0276  3705
 0.0326  2344
 0.0376  1290
 0.0426   699
 0.0476   315
 0.0526   138
 0.0576    44
 0.0626    25
 0.0676     9
 0.0726     3
 0.0776     6
 0.0826     1
 0.0876     0
 0.0926     1
 0.0976     1
 0.1026     3
 0.1076     0
 0.1126     0
 0.1176     0
 0.1226    23
 0.1276   160
 0.1326   263
 0.1376   210
 0.1426   200
 0.1476   187
 0.1526   191
 0.1576   194
 0.1626   173
 0.1675   160
 0.1725   160
 0.1775   182
 0.1825   187
 0.1875   180
 0.1925   196
 0.1975   187
 0.2025   189
 0.2075   208
 0.2125   223
 0.2175   255
 0.2225   302
 0.2275   350
 0.2325   424
 0.2375   519
 0.2425   660
 0.2475   780
 0.2525   921
 0.2575  1090
 0.2625  1246
 0.2675  1367
 0.2725  1444
 0.2775  1418
 0.2825  1360
 0.2875  1239
 0.2925  1073
 0.2975   888
 0.3025   705
 0.3075   602
 0.3125   476
 0.3175   358
 0.3225   288
 0.3275   248
 0.3325   232
 0.3375   210
 0.3425   211
 0.3475   214
 0.3525   212
 0.3575   218
 0.3625   235
 0.3675   275
 0.3725   304
 0.3775   314
 0.3825   314
 0.3875   327
 0.3925   338
 0.3975   346
 0.4025   357
 0.4075   372
 0.4125   399
 0.4175   439
 0.4225   485
 0.4275   478
 0.4325   544
 0.4375   619
 0.4425   700
 0.4475   834
 0.4525  1022
 0.4575  1290
 0.4625  1694
 0.4675  2232
 0.4725  3063
 0.4775  4030
 0.4825  5642
 0.4875  7727
 0.4925  9939
 0.4975 12540
 0.5024 15169
 0.5074 18119
 0.5124 20311
 0.5174 22060
 0.5224 23025
 0.5274 22874
 0.5324 21949
 0.5374 20286
 0.5424 17567
 0.5474 14845
 0.5524 11873
 0.5574  9126
 0.5624  6595
 0.5674  4874
 0.5724  3245
 0.5774  2193
 0.5824  1473
 0.5874   975
 0.5924   689
 0.5974   521
 0.6024   445
 0.6074   400
 0.6124   380
 0.6174   382
 0.6224   415
 0.6274   315
 0.6324   369
 0.6374   323
 0.6424   312
 0.6474   330
 0.6524   338
 0.6574   341
 0.6624   362
 0.6674   367
 0.6724   435
 0.6774   484
 0.6824   533
 0.6874   574
 0.6924   610
 0.6974   704
 0.7024   723
 0.7074   735
 0.7124   801
 0.7174   794
 0.7224   752
 0.7274   644
 0.7324   673
 0.7374   563
 0.7424   519
 0.7474   492
 0.7524   408
 0.7574   385
 0.7624   316
 0.7674   313
 0.7724   276
 0.7774   297
 0.7824   279
 0.7874   324
 0.7924   280
 0.7974   278
 0.8024   272
 0.8074   268
 0.8124   269
 0.8174   267
 0.8224   263
 0.8274   260
 0.8324   272
 0.8373   270
 0.8423   260
 0.8473   262
 0.8523   271
 0.8573   268
 0.8623   280
 0.8673   265
 0.8723   328
 0.8773   305
 0.8823   276
 0.8873   296
 0.8923   266
 0.8973   302
 0.9023   291
 0.9073   275
 0.9123   297
 0.9173   271
 0.9223   269
 0.9273   267
 0.9323   261
 0.9373   291
 0.9423   285
 0.9473   278
 0.9523   267
 0.9573   296
 0.9623   284
 0.9673   298
 0.9723   311
 0.9773   325
 0.9823   290
 0.9873   359
 0.9923   397
 0.9973   416
 1.0023   428
 1.0073   433
 1.0123   460
 1.0173   509
 1.0223   532
 1.0273   540
 1.0323   552
 1.0373   546
 1.0423   535
 1.0473   530
 1.0523   505
 1.0573   485
 1.0623   475
 1.0673   442
 1.0723   415
 1.0773   391
 1.0823   357
 1.0873   318
 1.0923   294
 1.0973   295
 1.1023   288
 1.1073   270
 1.1123   266
 1.1173   267
 1.1223   259
 1.1273   261
 1.1323   262
 1.1373   260
 1.1423   260
 1.1473   239
 1.1523   247
 1.1573   257
 1.1623   279
 1.1672   282
 1.1722   253
 1.1772   266
 1.1822   281
 1.1872   280
 1.1922   252
 1.1972   225
 1.2022   301
 1.2072   300
 1.2122   293
 1.2172   301
 1.2222   293
 1.2272   315
 1.2322   308
 1.2372   361
 1.2422   366
 1.2472   326
 1.2522   381
 1.2572   402
 1.2622   375
 1.2672   363
 1.2722   350
 1.2772   356
 1.2822   369
 1.2872   321
 1.2922   296
 1.2972   302
 1.3022   316
 1.3072   300
 1.3122   281
 1.3172   264
 1.3222   292
 1.3272   255
 1.3322   279
 1.3372   276
 1.3422   262
 1.3472   262
 1.3522   252
 1.3572   265
 1.3622   246
 1.3672   232
 1.3722   221
 1.3772   235
 1.3822   242
 1.3872   301
 1.3922   265
 1.3972   274
 1.4022   251
 1.4072   250
 1.4122   277
 1.4172   288
 1.4222   278
 1.4272   320
 1.4322   377
 1.4372   408
 1.4422   464
 1.4472   501
 1.4522   556
 1.4572   564
 1.4622   657
 1.4672   740
 1.4722   815
 1.4772   848
 1.4822   849
 1.4872   882
 1.4922   900
 1.4972   903
 1.5021   841
 1.5071   806
 1.5121   741
 1.5171   744
 1.5221   644
 1.5271   566
 1.5321   528
 1.5371   465
 1.5421   407
 1.5471   404
 1.5521   363
 1.5571   345
 1.5621   341
 1.5671   300
 1.5721   283
 1.5771   259
 1.5821   267
 1.5871   270
 1.5921   276
 1.5971   282
 1.6021   270
 1.6071   255
 1.6121   249
 1.6171   266
 1.6221   284
 1.6271   281
 1.6321   315
 1.6371   330
 1.6421   375
 1.6471   411
 1.6521   501
 1.6571   680
 1.6621   893
 1.6671  1196
 1.6721  1551
 1.6771  2038
 1.6821  2703
 1.6871  3472
 1.6921  4335
 1.6971  5314
 1.7021  6476
 1.7071  7730
 1.7121  8935
 1.7171 10018
 1.7221 11118
 1.7271 12189
 1.7321 12855
 1.7371 13243
 1.7421 13691
 1.7471 13398
 1.7521 13154
 1.7571 12612
 1.7621 11660
 1.7671 10544
 1.7721  9335
 1.7771  8108
 1.7821  6897
 1.7871  5817
 1.7921  4799
 1.7971  3869
 1.8021  3111
 1.8071  2491
 1.8121  2023
 1.8171  1685
 1.8221  1391
 1.8271  1167
 1.8321  1033
  1.837   893
  1.842   786
  1.847   722
  1.852   658
  1.857   580
  1.862   530
  1.867   470
  1.872   427
  1.877   385
  1.882   353
  1.887   325
  1.892   288
  1.897   256
  1.902   234
  1.907   213
  1.912   180
  1.917   164
  1.922   165
  1.927   162
  1.932   158
  1.937   159
  1.942   173
  1.947   164
  1.952   146
  1.957   149
  1.962   158
  1.967   161
  1.972   177
  1.977   177
  1.982   170
  1.987   188
  1.992   202
  1.997   190
  2.002   185
  2.007   195
  2.012   198
  2.017   193
  2.022   199
  2.027   204
  2.032   191
  2.037   196
  2.042   197
  2.047   183
  2.052   153
  2.057   152
  2.062   162
  2.067   149
  2.072   155
  2.077   150
  2.082   144
  2.087   154
  2.092   157
  2.097   147
  2.102   137
  2.107   128
  2.112   132
  2.117   127
  2.122   132
  2.127   152
  2.132   140
  2.137   133
  2.142   140
  2.147   146
  2.152   139
  2.157   133
  2.162   133
 2.1669   135
 2.1719   135
 2.1769   140
 2.1819   142
 2.1869   132
 2.1919   133
 2.1969   141
 2.2019   141
 2.2069   134
 2.2119   135
 2.2169   147
 2.2219   148
 2.2269   141
 2.2319   138
 2.2369   133
 2.2419   128
 2.2469   134
 2.2519   140
 2.2569   134
 2.2619   129
 2.2669   133
 2.2719   134
 2.2769   131
 2.2819   131
 2.2869   130
 2.2919   129
 2.2969   128
 2.3019   125
 2.3069   123
 2.3119   121
 2.3169   123
 2.3219   129
 2.3269   130
 2.3319   128
 2.3369   127
 2.3419   123
 2.3469   120
 2.3519   122
 2.3569   123
 2.3619   120
 2.3669   120
 2.3719   123
 2.3769   123
 2.3819   128
 2.3869   131
 2.3919   123
 2.3969   116
 2.4019   122
 2.4069   127
 2.4119   124
 2.4169   118
 2.4219   115
 2.4269   115
 2.4319   120
 2.4369   125
 2.4419   124
 2.4469   126
 2.4519   132
 2.4569   129
 2.4619   120
 2.4669   117
 2.4719   118
 2.4769   119
 2.4819   118
 2.4869   119
 2.4919   121
 2.4969   120
 2.5018   115
 2.5068   109
 2.5118   105
 2.5168   102
 2.5218   100
 2.5268   105
 2.5318   110
 2.5368   118
 2.5418   110
 2.5468   127
 2.5518   110
 2.5568   116
 2.5618   101
 2.5668   131
 2.5718   128
 2.5768   118
 2.5818   117
 2.5868   107
 2.5918   103
 2.5968   125
 2.6018   116
 2.6068   117
 2.6118   126
 2.6168   106
 2.6218   120
 2.6268   109
 2.6318   110
 2.6368   116
 2.6418   108
 2.6468   109
 2.6518   126
 2.6568   111
 2.6618   108
 2.6668   100
 2.6718   114
 2.6768   121
 2.6818   108
 2.6868   112
 2.6918   109
 2.6968   105
 2.7018    97
 2.7068   105
 2.7118   122
 2.7168   116
 2.7218   113
 2.7268   105
 2.7318    88
 2.7368    93
 2.7418   105
 2.7468   112
 2.7518   108
 2.7568    90
 2.7618    95
 2.7668    94
 2.7718    96
 2.7768   110
 2.7818    98
 2.7868    97
 2.7918   106
 2.7968    99
 2.8018    95
 2.8068    84
 2.8118   112
 2.8168    82
 2.8218    95
 2.8268   105
 2.8318    95
 2.8367   106
 2.8417    90
 2.8467    97
 2.8517    91
 2.8567   104
 2.8617    85
 2.8667   103
 2.8717    96
 2.8767    97
 2.8817    97
 2.8867   110
 2.8917    92
 2.8967   107
 2.9017    83
 2.9067   106
 2.9117   111
 2.9167    95
 2.9217    78
 2.9267    92
 2.9317   107
 2.9367    98
 2.9417    93
 2.9467    66
 2.9517    87
 2.9567   102
 2.9617    80
 2.9667    83
 2.9717   100
 2.9767    82
 2.9817    81
 2.9867    98
 2.9917    80
 2.9967    89
 3.0017    98
 3.0067    90
 3.0117   105
 3.0167    77
 3.0217    90
 3.0267    85
 3.0317    98
 3.0367    95
 3.0417    95
 3.0467    93
 3.0517    80
 3.0567    79
 3.0617    98
 3.0667    86
 3.0717    89
 3.0767    81
 3.0817    79
 3.0867    93
 3.0917    93
 3.0967    77
 3.1017    93
 3.1067    85
 3.1117    84
 3.1167    84
 3.1217    84
 3.1267    92
 3.1317    88
 3.1367    67
 3.1417    84
 3.1467    85
 3.1517    82
 3.1567    75
 3.1617    90
 3.1666    94
 3.1716    86
 3.1766    77
 3.1816    82
 3.1866    97
 3.1916    81
 3.1966    68
 3.2016    90
 3.2066    85
 3.2116    90
 3.2166    84
 3.2216    83
 3.2266    85
 3.2316   101
 3.2366    91
 3.2416    92
 3.2466    81
 3.2516    79
 3.2566    92
 3.2616   113
 3.2666   109
 3.2716    97
 3.2766   105
 3.2816   115
 3.2866   112
 3.2916   116
 3.2966   113
 3.3016   108
 3.3066   114
 3.3116   111
 3.3166   126
 3.3216   133
 3.3266   109
 3.3316   118
 3.3366   113
 3.3416   123
 3.3466   109
 3.3516    99
 3.3566   107
 3.3616    97
 3.3666    98
 3.3716    87
 3.3766    75
 3.3816   107
 3.3866    98
 3.3916    90
 3.3966    73
 3.4016    80
 3.4066    69
 3.4116    83
 3.4166    85
 3.4216    68
 3.4266    74
 3.4316    70
 3.4366    67
 3.4416    79
 3.4466    78
 3.4516    65
 3.4566    61
 3.4616    71
 3.4666    77
 3.4716    77
 3.4766    65
 3.4816    58
 3.4866    60
 3.4916    57
 3.4966    84
 3.5015    63
 3.5065    68
 3.5115    80
 3.5165    73
 3.5215    60
 3.5265    70
 3.5315    70
 3.5365    56
 3.5415    61
 3.5465    73
 3.5515    66
 3.5565    67
 3.5615    67
 3.5665    81
 3.5715    62
 3.5765    55
 3.5815    69
 3.5865    69
 3.5915    69
 3.5965    66
 3.6015    60
 3.6065    67
 3.6115    77
 3.6165    81
 3.6215    67
 3.6265    80
 3.6315    81
 3.6365    92
 3.6415    91
 3.6465    83
 3.6515    76
 3.6565    87
 3.6615    79
 3.6665    76
 3.6715    82
 3.6765    83
 3.6815    89
 3.6865    92
 3.6915    79
 3.6965    79
 3.7015    85
 3.7065    79
 3.7115    89
 3.7165    69
 3.7215    75
 3.7265    87
 3.7315    72
 3.7365    75
 3.7415    85
 3.7465    91
 3.7515    70
 3.7565    76
 3.7615    66
 3.7665    64
 3.7715    70
 3.7765    69
 3.7815    69
 3.7865    80
 3.7915    48
 3.7965    64
 3.8015    63
 3.8065    48
 3.8115    59
 3.8165    71
 3.8215    56
 3.8265    69
 3.8315    69
 3.8364    56
 3.8414    63
 3.8464    59
 3.8514    68
 3.8564    65
 3.8614    63
 3.8664    48
 3.8714    67
 3.8764    61
 3.8814    43
 3.8864    69
 3.8914    56
 3.8964    56
 3.9014    61
 3.9064    64
 3.9114    56
 3.9164    61
 3.9214    58
 3.9264    52
 3.9314    74
 3.9364    65
 3.9414    53
 3.9464    62
 3.9514    50
 3.9564    62
 3.9614    63
 3.9664    55
 3.9714    66
 3.9764    59
 3.9814    60
 3.9864    57
 3.9914    55
 3.9964    56
 4.0014    60
 4.0064    65
 4.0114    60
 4.0164    62
 4.0214    65
 4.0264    63
 4.0314    51
 4.0364    45
 4.0414    58
 4.0464    57
 4.0514    58
 4.0564    66
 4.0614    51
 4.0664    56
 4.0714    57
 4.0764    65
 4.0814    66
 4.0864    57
 4.0914    52
 4.0964    47
 4.1014    51
 4.1064    54
 4.1114    58
 4.1164    54
 4.1214    40
 4.1264    53
 4.1314    55
 4.1364    56
 4.1414    65
 4.1464    62
 4.1514    57
 4.1564    66
 4.1614    53
 4.1663    59
 4.1713    57
 4.1763    55
 4.1813    48
 4.1863    52
 4.1913    56
 4.1963    44
 4.2013    55
 4.2063    60
 4.2113    46
 4.2163    44
 4.2213    46
 4.2263    49
 4.2313    52
 4.2363    51
 4.2413    45
 4.2463    48
 4.2513    60
 4.2563    51
 4.2613    59
 4.2663    52
 4.2713    44
 4.2763    56
 4.2813    55
 4.2863    51
 4.2913    39
 4.2963    56
 4.3013    48
 4.3063    46
 4.3113    51
 4.3163    55
 4.3213    43
 4.3263    45
 4.3313    52
 4.3363    56
 4.3413    50
 4.3463    42
 4.3513    50
 4.3563    58
 4.3613    57
 4.3663    59
 4.3713    50
 4.3763    54
 4.3813    53
 4.3863    44
 4.3913    49
 4.3963    48
 4.4013    53
 4.4063    53
 4.4113    49
 4.4163    44
 4.4213    37
 4.4263    48
 4.4313    56
 4.4363    50
 4.4413    50
 4.4463    46
 4.4513    52
 4.4563    51
 4.4613    49
 4.4663    48
 4.4713    52
 4.4763    62
 4.4813    50
 4.4863    44
 4.4913    52
 4.4963    50
 4.5012    46
 4.5062    60
 4.5112    62
 4.5162    55
 4.5212    53
 4.5262    50
 4.5312    51
 4.5362    42
 4.5412    47
 4.5462    58
 4.5512    53
 4.5562    50
 4.5612    53
 4.5662    49
 4.5712    43
 4.5762    47
 4.5812    51
 4.5862    51
 4.5912    46
 4.5962    44
 4.6012    48
 4.6062    42
 4.6112    49
 4.6162    58
 4.6212    56
 4.6262    46
 4.6312    39
 4.6362    46
 4.6412    48
 4.6462    43
 4.6512    44
 4.6562    44
 4.6612    43
 4.6662    40
 4.6712    31
 4.6762    33
 4.6812    36
 4.6862    36
 4.6912    41
 4.6962    50
 4.7012    43
 4.7062    43
 4.7112    47
 4.7162    42
 4.7212    47
 4.7262    44
 4.7312    33
 4.7362    32
 4.7412    41
 4.7462    48
 4.7512    49
 4.7562    49
 4.7612    43
 4.7662    39
 4.7712    44
 4.7762    48
 4.7812    43
 4.7862    32
 4.7912    37
 4.7962    40
 4.8012    36
 4.8062    36
 4.8112    43
 4.8162    53
 4.8212    53
 4.8262    50
 4.8312    43
 4.8361    37
 4.8411    34
 4.8461    40
 4.8511    45
 4.8561    44
 4.8611    45
 4.8661    35
 4.8711    33
 4.8761    38
 4.8811    43
 4.8861    47
 4.8911    38
 4.8961    37
 4.9011    43
 4.9061    42
 4.9111    39
 4.9161    36
 4.9211    45
 4.9261    43
 4.9311    34
 4.9361    41
 4.9411    40
 4.9461    34
 4.9511    40
 4.9561    44
 4.9611    36
 4.9661    36
 4.9711    35
 4.9761    34
 4.9811    36
 4.9861    40
 4.9911    35
 4.9961    29
 5.0011    32
 5.0061    41
 5.0111    44
 5.0161    38
 5.0211    34
 5.0261    38
 5.0311    39
 5.0361    37
 5.0411    37
 5.0461    39
 5.0511    36
 5.0561    32
 5.0611    33
 5.0661    29
 5.0711    28
 5.0761    30
 5.0811    34
 5.0861    34
 5.0911    39
 5.0961    34
 5.1011    32
 5.1061    39
 5.1111    42
 5.1161    30
 5.1211    38
 5.1261    38
 5.1311    35
 5.1361    34
 5.1411    38
 5.1461    38
 5.1511    34
 5.1561    28
 5.1611    35
  5.166    34
  5.171    31
  5.176    39
  5.181    44
  5.186    36
  5.191    36
  5.196    34
  5.201    29
  5.206    36
  5.211    39
  5.216    41
  5.221    36
  5.226    32
  5.231    33
  5.236    36
  5.241    28
  5.246    34
  5.251    39
  5.256    35
  5.261    28
  5.266    28
  5.271    35
  5.276    33
  5.281    34
  5.286    35
  5.291    41
  5.296    34
  5.301    32
  5.306    32
  5.311    25
  5.316    24
  5.321    25
  5.326    33
  5.331    42
  5.336    34
  5.341    44
  5.346    40
  5.351    36
  5.356    35
  5.361    33
  5.366    31
  5.371    37
  5.376    35
  5.381    36
  5.386    42
  5.391    37
  5.396    28
  5.401    26
  5.406    31
  5.411    25
  5.416    32
  5.421    32
  5.426    28
  5.431    31
  5.436    42
  5.441    39
  5.446    28
  5.451    29
  5.456    29
  5.461    33
  5.466    33
  5.471    30
  5.476    33
  5.481    38
  5.486    32
  5.491    30
  5.496    27
 5.5009    26
 5.5059    32
 5.5109    31
 5.5159    38
 5.5209    34
 5.5259    42
 5.5309    34
 5.5359    33
 5.5409    43
 5.5459    26
 5.5509    31
 5.5559    28
 5.5609    34
 5.5659    31
 5.5709    27
 5.5759    33
 5.5809    25
 5.5859    28
 5.5909    28
 5.5959    29
 5.6009    26
 5.6059    24
 5.6109    35
 5.6159    35
 5.6209    29
 5.6259    26
 5.6309    32
 5.6359    26
 5.6409    31
 5.6459    28
 5.6509    25
 5.6559    36
 5.6609    29
 5.6659    33
 5.6709    25
 5.6759    23
 5.6809    46
 5.6859    33
 5.6909    30
 5.6959    30
 5.7009    43
 5.7059    35
 5.7109    32
 5.7159    21
 5.7209    27
 5.7259    28
 5.7309    27
 5.7359    31
 5.7409    27
 5.7459    23
 5.7509    23
 5.7559    26
 5.7609    29
 5.7659    31
 5.7709    28
 5.7759    31
 5.7809    21
 5.7859    29
 5.7909    21
 5.7959    23
 5.8009    27
 5.8059    37
 5.8109    35
 5.8159    31
 5.8209    30
 5.8259    29
 5.8309    27
 5.8358    29
 5.8408    21
 5.8458    26
 5.8508    36
 5.8558    22
 5.8608    33
 5.8658    26
 5.8708    26
 5.8758    34
 5.8808    28
 5.8858    28
 5.8908    32
 5.8958    21
 5.9008    26
 5.9058    26
 5.9108    30
 5.9158    29
 5.9208    20
 5.9258    25
 5.9308    23
 5.9358    35
 5.9408    31
 5.9458    27
 5.9508    25
 5.9558    26
 5.9608    15
 5.9658    20
 5.9708    36
 5.9758    30
 5.9808    34
 5.9858    23
 5.9908    21
 5.9958    33
 6.0008    21
 6.0058    27
 6.0108    24
 6.0158    35
 6.0208    25
 6.0258    35
 6.0308    25
 6.0358    19
 6.0408    35
 6.0458    20
 6.0508    18
 6.0558    23
 6.0608    19
 6.0658    40
 6.0708    19
 6.0758    38
 6.0808    28
 6.0858    29
 6.0908    24
 6.0958    31
 6.1008    22
 6.1058    19
 6.1108    26
 6.1158    25
 6.1208    23
 6.1258    32
 6.1308    26
 6.1358    16
 6.1408    33
 6.1458    22
 6.1508    18
 6.1558    22
 6.1608    27
 6.1657    20
 6.1707    22
 6.1757    28
 6.1807    21
 6.1857    20
 6.1907    22
 6.1957    30
 6.2007    31
 6.2057    14
 6.2107    20
 6.2157    23
 6.2207    17
 6.2257    22
 6.2307    27
 6.2357    28
 6.2407    21
 6.2457    23
 6.2507    28
 6.2557    32
 6.2607    16
 6.2657    41
 6.2707    30
 6.2757    31
 6.2807    33
 6.2857    31
 6.2907    29
 6.2957    23
 6.3007    35
 6.3057    38
 6.3107    42
 6.3157    33
 6.3207    39
 6.3257    49
 6.3307    64
 6.3357    41
 6.3407    53
 6.3457    56
 6.3507    59
 6.3557    65
 6.3607    63
 6.3657    69
 6.3707    75
 6.3757    84
 6.3807    78
 6.3857    88
 6.3907    81
 6.3957    80
 6.4007    75
 6.4057    74
 6.4107    68
 6.4157    96
 6.4207    80
 6.4257    79
 6.4307    72
 6.4357    82
 6.4407    49
 6.4457    68
 6.4507    59
 6.4557    65
 6.4607    58
 6.4657    46
 6.4707    38
 6.4757    39
 6.4807    38
 6.4857    39
 6.4907    38
 6.4957    34
 6.5006    30
 6.5056    29
 6.5106    20
 6.5156    31
 6.5206    27
 6.5256    32
 6.5306    17
 6.5356    23
 6.5406    28
 6.5456    27
 6.5506    26
 6.5556    20
 6.5606    19
 6.5656    23
 6.5706    24
 6.5756    26
 6.5806    31
 6.5856    17
 6.5906    21
 6.5956    23
 6.6006    19
 6.6056    13
 6.6106    21
 6.6156    15
 6.6206    18
 6.6256    19
 6.6306    22
 6.6356    16
 6.6406    22
 6.6456    10
 6.6506    16
 6.6556    23
 6.6606    18
 6.6656    18
 6.6706    24
 6.6756    18
 6.6806    16
 6.6856    21
 6.6906    20
 6.6956    18
 6.7006    18
 6.7056    21
 6.7106    17
 6.7156    16
 6.7206    23
 6.7256     9
 6.7306    18
 6.7356    14
 6.7406    27
 6.7456    17
 6.7506    23
 6.7556    22
 6.7606    14
 6.7656    24
 6.7706    22
 6.7756    20
 6.7806    19
 6.7856    22
 6.7906    23
 6.7956    20
 6.8006    21
 6.8056    20
 6.8106    24
 6.8156    16
 6.8206    17
 6.8256    15
 6.8306    23
 6.8355    23
 6.8405    20
 6.8455    11
 6.8505    21
 6.8555    29
 6.8605    11
 6.8655    23
 6.8705     9
 6.8755    16
 6.8805    22
 6.8855    22
 6.8905    18
 6.8955    10
 6.9005    20
 6.9055    13
 6.9105    20
 6.9155    17
 6.9205    26
 6.9255    15
 6.9305    12
 6.9355    11
 6.9405    15
 6.9455    19
 6.9505    17
 6.9555    18
 6.9605    17
 6.9655    13
 6.9705    25
 6.9755    19
 6.9805    17
 6.9855    15
 6.9905    19
 6.9955    25
 7.0005    26
 7.0055    24
 7.0105    27
 7.0155    32
 7.0205    15
 7.0255    21
 7.0305    28
 7.0355    18
 7.0405    19
 7.0455    24
 7.0505    37
 7.0555    22
 7.0605    29
 7.0655    26
 7.0705    27
 7.0755    17
 7.0805    27
 7.0855    15
 7.0905    20
 7.0955    20
 7.1005    24
 7.1055    21
 7.1105    20
 7.1155    13
 7.1205    17
 7.1255    16
 7.1305    17
 7.1355    16
 7.1405    21
 7.1455    21
 7.1505    14
 7.1555    10
 7.1605    16
 7.1654    13
 7.1704    22
 7.1754    13
 7.1804     8
 7.1854    18
 7.1904    12
 7.1954    12
 7.2004    15
 7.2054     9
 7.2104    26
 7.2154    12
 7.2204    18
 7.2254    12
 7.2304    13
 7.2354    10
 7.2404    14
 7.2454    13
 7.2504    10
 7.2554    13
 7.2604    16
 7.2654     9
 7.2704    19
 7.2754    12
 7.2804    14
 7.2854    15
 7.2904    13
 7.2954    17
 7.3004     9
 7.3054    19
 7.3104    14
 7.3154    15
 7.3204    14
 7.3254    15
 7.3304    18
 7.3354    11
 7.3404    20
 7.3454    12
 7.3504    12
 7.3554    15
 7.3604     9
 7.3654    13
 7.3704    14
 7.3754    12
 7.3804     9
 7.3854     8
 7.3904    20
 7.3954    13
 7.4004     7
 7.4054    21
 7.4104    11
 7.4154    21
 7.4204    13
 7.4254    12
 7.4304    18
 7.4354    13
 7.4404    15
 7.4454    13
 7.4504    14
 7.4554    11
 7.4604    11
 7.4654     9
 7.4704    12
 7.4754    12
 7.4804    10
 7.4854    17
 7.4904    13
 7.4954    16
 7.5003     5
 7.5053    19
 7.5103    17
 7.5153    11
 7.5203    20
 7.5253     7
 7.5303    12
 7.5353    12
 7.5403    12
 7.5453    16
 7.5503     7
 7.5553    13
 7.5603    14
 7.5653    13
 7.5703    11
 7.5753     9
 7.5803    13
 7.5853    12
 7.5903    12
 7.5953    13
 7.6003    14
 7.6053     9
 7.6103    12
 7.6153    12
 7.6203     9
 7.6253     7
 7.6303    13
 7.6353    11
 7.6403    11
 7.6453     8
 7.6503     5
 7.6553    10
 7.6603    13
 7.6653    10
 7.6703    12
 7.6753    15
 7.6803    16
 7.6853     9
 7.6903    13
 7.6953     8
 7.7003     5
 7.7053    17
 7.7103    12
 7.7153    15
 7.7203    11
 7.7253    13
 7.7303     6
 7.7353     7
 7.7403    12
 7.7453     9
 7.7503    15
 7.7553    14
 7.7603     9
 7.7653    11
 7.7703    10
 7.7753     8
 7.7803    14
 7.7853    13
 7.7903    11
 7.7953    10
 7.8003    10
 7.8053    12
 7.8103     9
 7.8153    11
 7.8203    12
 7.8253    12
 7.8303    14
 7.8352    13
 7.8402    11
 7.8452    11
 7.8502    14
 7.8552     7
 7.8602    18
 7.8652     5
 7.8702     9
 7.8752    10
 7.8802     8
 7.8852    14
 7.8902    12
 7.8952     9
 7.9002     7
 7.9052     9
 7.9102     9
 7.9152     4
 7.9202    11
 7.9252     9
 7.9302     7
 7.9352    13
 7.9402    11
 7.9452     8
 7.9502    13
 7.9552     7
 7.9602     9
 7.9652    13
 7.9702     8
 7.9752    10
 7.9802     4
 7.9852     9
 7.9902     7
 7.9952    10
 8.0002    10
 8.0052     8
 8.0102    15
 8.0152    12
 8.0202     5
 8.0252    18
 8.0302    16
 8.0352     8
 8.0402     9
 8.0452     9
 8.0502    10
 8.0552     9
 8.0602     5
 8.0652     8
 8.0702     2
 8.0752    10
 8.0802    14
 8.0852     9
 8.0902    11
 8.0952    12
 8.1002     7
 8.1052     8
 8.1102    14
 8.1152    10
 8.1202    10
 8.1252     9
 8.1302    10
 8.1352    10
 8.1402     9
 8.1452    11
 8.1502     3
 8.1552     6
 8.1602     9
 8.1651    10
 8.1701     8
 8.1751     4
 8.1801    10
 8.1851     8
 8.1901    10
 8.1951     7
 8.2001     3
 8.2051     7
 8.2101     8
 8.2151     9
 8.2201    10
 8.2251     8
 8.2301     7
 8.2351     7
 8.2401     5
 8.2451     6
 8.2501    10
 8.2551     8
 8.2601    10
 8.2651     3
 8.2701     6
 8.2751     4
 8.2801     5
 8.2851     3
 8.2901     9
 8.2951     8
 8.3001     4
 8.3051     4
 8.3101     3
 8.3151    14
 8.3201     7
 8.3251     6
 8.3301     6
 8.3351    10
 8.3401     7
 8.3451     7
 8.3501    12
 8.3551     6
 8.3601     3
 8.3651     9
 8.3701    10
 8.3751     8
 8.3801     7
 8.3851     8
 8.3901     7
 8.3951     1
 8.4001     8
 8.4051     3
 8.4101     7
 8.4151     6
 8.4201     9
 8.4251     3
 8.4301     6
 8.4351     9
 8.4401     4
 8.4451     9
 8.4501     5
 8.4551    12
 8.4601     5
 8.4651     3
 8.4701     3
 8.4751     1
 8.4801     2
 8.4851     4
 8.4901     4
 8.4951     8
    8.5     6
  8.505     9
   8.51     7
  8.515     6
   8.52     5
  8.525     5
   8.53     5
  8.535     9
   8.54     7
  8.545     4
   8.55     7
  8.555     2
   8.56     5
  8.565     5
   8.57     7
  8.575     4
   8.58     4
  8.585     7
   8.59     8
  8.595     7
    8.6     3
  8.605     3
   8.61     7
  8.615     0
   8.62     3
  8.625     1
   8.63     6
  8.635     6
   8.64     3
  8.645     3
   8.65     5
  8.655     6
   8.66     6
  8.665     4
   8.67     2
  8.675     3
   8.68     4
  8.685     3
   8.69     3
  8.695     1
    8.7     8
  8.705     5
   8.71     4
  8.715     2
   8.72     4
  8.725     4
   8.73     6
  8.735     4
   8.74     5
  8.745     6
   8.75     4
  8.755     2
   8.76     3
  8.765     4
   8.77     3
  8.775     0
   8.78     4
  8.785     7
   8.79     8
  8.795     3
    8.8     2
  8.805     4
   8.81     8
  8.815     4
   8.82     6
  8.825     3
   8.83     4
 8.8349     2
 8.8399     5
 8.8449     3
 8.8499     3
 8.8549     3
 8.8599     6
 8.8649     2
 8.8699     4
 8.8749     5
 8.8799     5
 8.8849     2
 8.8899     2
 8.8949     3
 8.8999     4
 8.9049     5
 8.9099     5
 8.9149     1
 8.9199     2
 8.9249     3
 8.9299     1
 8.9349     1
 8.9399     2
 8.9449     4
 8.9499     2
 8.9549     2
 8.9599     3
 8.9649     2
 8.9699     4
 8.9749     3
 8.9799     1
 8.9849     2
 8.9899     1
 8.9949     5
 8.9999     3
 9.0049     3
 9.0099     2
 9.0149     0
 9.0199     2
 9.0249     3
 9.0299     2
 9.0349     1
 9.0399     3
 9.0449     2
 9.0499     3
 9.0549     4
 9.0599     2
 9.0649     2
 9.0699     3
 9.0749     3
 9.0799     5
 9.0849     2
 9.0899     2
 9.0949     3
 9.0999     4
 9.1049     1
 9.1099     1
 9.1149     3
 9.1199     3
 9.1249     2
 9.1299     4
 9.1349     1
 9.1399     1
 9.1449     4
 9.1499     3
 9.1549     3
 9.1599     4
 9.1648     4
 9.1698     6
 9.1748     6
 9.1798     0
 9.1848     2
 9.1898     3
 9.1948     2
 9.1998     1
 9.2048     7
 9.2098     1
 9.2148     1
 9.2198     3
 9.2248     3
 9.2298     0
 9.2348     1
 9.2398     1
 9.2448     2
 9.2498     1
 9.2548     1
 9.2598     4
 9.2648     0
 9.2698     3
 9.2748     1
 9.2798     0
 9.2848     4
 9.2898     2
 9.2948     0
 9.2998     3
 9.3048     3
 9.3098     1
 9.3148     1
 9.3198     0
 9.3248     1
 9.3298     1
 9.3348     1
 9.3398     1
 9.3448     0
 9.3498     0
 9.3548     2
 9.3598     0
 9.3648     0
 9.3698     1
 9.3748     0
 9.3798     1
 9.3848     0
 9.3898     1
 9.3948     1
 9.3998     0
 9.4048     0
 9.4098     0
 9.4148     0
 9.4198     1
 9.4248     0
 9.4298     1
 9.4348     0
 9.4398     2
 9.4448     0
 9.4498     0
 9.4548     2
 9.4598     4
 9.4648     0
 9.4698     1
 9.4748     1
 9.4798     1
 9.4848     2
 9.4898     0
 9.4948     0
 9.4997     1
 9.5047     1
 9.5097     2
 9.5147     1
 9.5197     0
 9.5247     2
 9.5297     0
 9.5347     1
 9.5397     0
 9.5447     1
 9.5497     1
 9.5547     0
 9.5597     1
 9.5647     1
 9.5697     0
 9.5747     1
 9.5797     0
 9.5847     0
 9.5897     0
 9.5947     0
 9.5997     0
 9.6047     0
 9.6097     0
 9.6147     1
 9.6197     0
 9.6247     1
 9.6297     0
 9.6347     1
 9.6397     0
 9.6447     0
 9.6497     1
 9.6547     1
 9.6597     1
 9.6647     0
 9.6697     1
 9.6747     0
 9.6797     0
 9.6847     2
 9.6897     0
 9.6947     0
 9.6997     0
 9.7047     0
 9.7097     0
 9.7147     0
 9.7197     0
 9.7247     0
 9.7297     0
 9.7347     0
 9.7397     1
 9.7447     0
 9.7497     0
 9.7547     2
 9.7597     0
 9.7647     0
 9.7697     1
 9.7747     0
 9.7797     2
 9.7847     0
 9.7897     0
 9.7947     0
 9.7997     0
 9.8047     0
 9.8097     0
 9.8147     0
 9.8197     0
 9.8247     0
 9.8297     0
 9.8346     0
 9.8396     0
 9.8446     0
 9.8496     0
 9.8546     0
 9.8596     0
