Bruker Nano GmbH Berlin, Germany
Esprit 2.x

Date: 8/21/2023 3:58:25 PM
Real time: 58786
Life time: 58250
Pulse density: 6101

Primary energy: 10
Beam current: -1
Take off angle: 35
Tilt angle: 0
Azimut angle: 45

Detector type: Custom type
Window type: slew AP3.3
Detector thickness: 0.45
Si dead layer:0

Calibration, lin.: 4.998
Calibration, abs.: -477.257
Mn FWHM: 124.4
Fano factor: 0.109
Channels: 2044

Energy Counts
-0.4773     0
-0.4723     0
-0.4673     0
-0.4623     0
-0.4573     0
-0.4523     0
-0.4473     0
-0.4423     0
-0.4373     0
-0.4323     0
-0.4273     0
-0.4223     0
-0.4173     0
-0.4123     0
-0.4073     0
-0.4023     0
-0.3973     0
-0.3923     0
-0.3873     0
-0.3823     0
-0.3773     0
-0.3723     0
-0.3673     0
-0.3623     0
-0.3573     0
-0.3523     0
-0.3473     0
-0.3423     0
-0.3373     0
-0.3323     0
-0.3273     0
-0.3223     0
-0.3173     0
-0.3123     0
-0.3073     0
-0.3023     0
-0.2973     0
-0.2923     0
-0.2873     0
-0.2823     0
-0.2773     0
-0.2723     0
-0.2673     0
-0.2623     0
-0.2573     0
-0.2523     0
-0.2473     0
-0.2423     0
-0.2373     0
-0.2323     0
-0.2273     0
-0.2223     0
-0.2173     0
-0.2123     0
-0.2073     0
-0.2023     0
-0.1973     0
-0.1923     0
-0.1873     0
-0.1823     0
-0.1773     0
-0.1723     0
-0.1673     0
-0.1624     0
-0.1574     0
-0.1524     0
-0.1474     0
-0.1424     0
-0.1374     0
-0.1324     0
-0.1274     0
-0.1224     0
-0.1174     0
-0.1124     0
-0.1074     0
-0.1024     0
-0.0974     0
-0.0924     0
-0.0874     0
-0.0824     0
-0.0774     1
-0.0724     1
-0.0674     4
-0.0624    10
-0.0574    43
-0.0524    97
-0.0474   220
-0.0424   471
-0.0374   895
-0.0324  1630
-0.0274  2513
-0.0224  3952
-0.0174  5405
-0.0124  6901
-0.0074  8338
-0.0024  8848
 0.0026  8837
 0.0076  7960
 0.0126  6963
 0.0176  5444
 0.0226  3952
 0.0276  2561
 0.0326  1619
 0.0376   866
 0.0426   490
 0.0476   223
 0.0526   113
 0.0576    42
 0.0626    14
 0.0676     8
 0.0726     5
 0.0776     0
 0.0826     0
 0.0876     1
 0.0926     0
 0.0976     0
 0.1026     0
 0.1076     0
 0.1126     0
 0.1176     0
 0.1226    10
 0.1276    74
 0.1326   122
 0.1376    92
 0.1426    95
 0.1476    86
 0.1526    72
 0.1576    79
 0.1626    86
 0.1675    70
 0.1725    76
 0.1775    57
 0.1825    56
 0.1875    64
 0.1925    59
 0.1975    68
 0.2025    76
 0.2075    76
 0.2125    76
 0.2175    82
 0.2225   109
 0.2275   126
 0.2325   173
 0.2375   237
 0.2425   304
 0.2475   388
 0.2525   483
 0.2575   579
 0.2625   646
 0.2675   711
 0.2725   746
 0.2775   743
 0.2825   736
 0.2875   677
 0.2925   578
 0.2975   483
 0.3025   394
 0.3075   301
 0.3125   219
 0.3175   168
 0.3225   139
 0.3275   121
 0.3325    96
 0.3375    88
 0.3425    89
 0.3475    93
 0.3525    98
 0.3575   104
 0.3625   112
 0.3675   110
 0.3725   116
 0.3775   136
 0.3825   140
 0.3875   132
 0.3925   130
 0.3975   155
 0.4025   178
 0.4075   161
 0.4125   172
 0.4175   178
 0.4225   194
 0.4275   195
 0.4325   228
 0.4375   257
 0.4425   303
 0.4475   359
 0.4525   428
 0.4575   561
 0.4625   728
 0.4675   961
 0.4725  1277
 0.4775  1812
 0.4825  2395
 0.4875  3226
 0.4925  4186
 0.4975  5468
 0.5024  6584
 0.5074  7907
 0.5124  8839
 0.5174  9602
 0.5224 10078
 0.5274 10056
 0.5324  9648
 0.5374  8820
 0.5424  7758
 0.5474  6397
 0.5524  5265
 0.5574  4028
 0.5624  2925
 0.5674  2084
 0.5724  1473
 0.5774   995
 0.5824   629
 0.5874   428
 0.5924   299
 0.5974   261
 0.6024   185
 0.6074   204
 0.6124   164
 0.6174   176
 0.6224   161
 0.6274   169
 0.6324   179
 0.6374   145
 0.6424   158
 0.6474   167
 0.6524   188
 0.6574   147
 0.6624   181
 0.6674   196
 0.6724   196
 0.6774   239
 0.6824   316
 0.6874   296
 0.6924   350
 0.6974   397
 0.7024   419
 0.7074   435
 0.7124   409
 0.7174   408
 0.7224   424
 0.7274   382
 0.7324   362
 0.7374   316
 0.7424   250
 0.7474   223
 0.7524   206
 0.7574   212
 0.7624   160
 0.7674   150
 0.7724   149
 0.7774   125
 0.7824   135
 0.7874   133
 0.7924   139
 0.7974   147
 0.8024   130
 0.8074   123
 0.8124   109
 0.8174   118
 0.8224   117
 0.8274   115
 0.8324   113
 0.8373   138
 0.8423    96
 0.8473   116
 0.8523   135
 0.8573   153
 0.8623   139
 0.8673   132
 0.8723   115
 0.8773   108
 0.8823   146
 0.8873   135
 0.8923   143
 0.8973   132
 0.9023   161
 0.9073   132
 0.9123   136
 0.9173   142
 0.9223   126
 0.9273   122
 0.9323   137
 0.9373   125
 0.9423   122
 0.9473   135
 0.9523   156
 0.9573   154
 0.9623   159
 0.9673   192
 0.9723   183
 0.9773   203
 0.9823   212
 0.9873   255
 0.9923   340
 0.9973   377
 1.0023   436
 1.0073   486
 1.0123   566
 1.0173   645
 1.0223   737
 1.0273   811
 1.0323   846
 1.0373   868
 1.0423   922
 1.0473   889
 1.0523   899
 1.0573   860
 1.0623   746
 1.0673   698
 1.0723   621
 1.0773   547
 1.0823   444
 1.0873   390
 1.0923   310
 1.0973   264
 1.1023   227
 1.1073   188
 1.1123   198
 1.1173   189
 1.1223   166
 1.1273   181
 1.1323   152
 1.1373   140
 1.1423   111
 1.1473   161
 1.1523   147
 1.1573   136
 1.1623   123
 1.1672   141
 1.1722   128
 1.1772   138
 1.1822   145
 1.1872   168
 1.1922   141
 1.1972   155
 1.2022   159
 1.2072   154
 1.2122   188
 1.2172   187
 1.2222   197
 1.2272   213
 1.2322   223
 1.2372   246
 1.2422   233
 1.2472   231
 1.2522   280
 1.2572   237
 1.2622   257
 1.2672   289
 1.2722   279
 1.2772   251
 1.2822   226
 1.2872   238
 1.2922   222
 1.2972   198
 1.3022   193
 1.3072   176
 1.3122   163
 1.3172   154
 1.3222   166
 1.3272   155
 1.3322   151
 1.3372   140
 1.3422   153
 1.3472   136
 1.3522   161
 1.3572   151
 1.3622   151
 1.3672   159
 1.3722   126
 1.3772   151
 1.3822   162
 1.3872   160
 1.3922   138
 1.3972   176
 1.4022   160
 1.4072   190
 1.4122   215
 1.4172   239
 1.4222   284
 1.4272   339
 1.4322   392
 1.4372   454
 1.4422   514
 1.4472   600
 1.4522   720
 1.4572   871
 1.4622  1035
 1.4672  1151
 1.4722  1268
 1.4772  1304
 1.4822  1393
 1.4872  1456
 1.4922  1503
 1.4972  1441
 1.5021  1347
 1.5071  1279
 1.5121  1164
 1.5171  1030
 1.5221   944
 1.5271   814
 1.5321   679
 1.5371   590
 1.5421   468
 1.5471   407
 1.5521   357
 1.5571   313
 1.5621   258
 1.5671   238
 1.5721   206
 1.5771   211
 1.5821   188
 1.5871   166
 1.5921   167
 1.5971   174
 1.6021   152
 1.6071   151
 1.6121   151
 1.6171   139
 1.6221   138
 1.6271   160
 1.6321   168
 1.6371   174
 1.6421   186
 1.6471   223
 1.6521   259
 1.6571   310
 1.6621   420
 1.6671   555
 1.6721   709
 1.6771   905
 1.6821  1149
 1.6871  1493
 1.6921  1929
 1.6971  2340
 1.7021  2791
 1.7071  3352
 1.7121  3854
 1.7171  4396
 1.7221  4930
 1.7271  5281
 1.7321  5680
 1.7371  5921
 1.7421  6008
 1.7471  5932
 1.7521  5778
 1.7571  5477
 1.7621  5149
 1.7671  4531
 1.7721  4028
 1.7771  3488
 1.7821  3002
 1.7871  2519
 1.7921  2069
 1.7971  1688
 1.8021  1370
 1.8071  1109
 1.8121   922
 1.8171   733
 1.8221   631
 1.8271   530
 1.8321   437
  1.837   407
  1.842   396
  1.847   340
  1.852   291
  1.857   280
  1.862   259
  1.867   219
  1.872   206
  1.877   195
  1.882   172
  1.887   156
  1.892   138
  1.897   125
  1.902   113
  1.907   106
  1.912   111
  1.917   116
  1.922   108
  1.927    96
  1.932    93
  1.937    96
  1.942    86
  1.947    88
  1.952   101
  1.957   100
  1.962   109
  1.967   108
  1.972   102
  1.977   105
  1.982   110
  1.987   110
  1.992   112
  1.997   113
  2.002   131
  2.007   141
  2.012   126
  2.017   129
  2.022   137
  2.027   131
  2.032   126
  2.037   131
  2.042   127
  2.047   110
  2.052   111
  2.057   122
  2.062   117
  2.067   106
  2.072   101
  2.077    87
  2.082    81
  2.087    82
  2.092    88
  2.097    98
  2.102    95
  2.107    85
  2.112    80
  2.117    74
  2.122    79
  2.127    80
  2.132    79
  2.137    77
  2.142    79
  2.147    74
  2.152    74
  2.157    92
  2.162    91
 2.1669    81
 2.1719    77
 2.1769    76
 2.1819    74
 2.1869    78
 2.1919    77
 2.1969    79
 2.2019    80
 2.2069    87
 2.2119    93
 2.2169    86
 2.2219    85
 2.2269    84
 2.2319    75
 2.2369    88
 2.2419    91
 2.2469    75
 2.2519    74
 2.2569    82
 2.2619    87
 2.2669    86
 2.2719    89
 2.2769    83
 2.2819    86
 2.2869    78
 2.2919    84
 2.2969    90
 2.3019    81
 2.3069    85
 2.3119    78
 2.3169    83
 2.3219    88
 2.3269    78
 2.3319    92
 2.3369    92
 2.3419    78
 2.3469    78
 2.3519    89
 2.3569    81
 2.3619    79
 2.3669    83
 2.3719    84
 2.3769    94
 2.3819    94
 2.3869    68
 2.3919    61
 2.3969    73
 2.4019    84
 2.4069    84
 2.4119    84
 2.4169    81
 2.4219    86
 2.4269    78
 2.4319    76
 2.4369    78
 2.4419    71
 2.4469    71
 2.4519    81
 2.4569    76
 2.4619    77
 2.4669    73
 2.4719    80
 2.4769    85
 2.4819    69
 2.4869    72
 2.4919    80
 2.4969    73
 2.5018    66
 2.5068    77
 2.5118    78
 2.5168    73
 2.5218    69
 2.5268    72
 2.5318    74
 2.5368    63
 2.5418    73
 2.5468    68
 2.5518    76
 2.5568    74
 2.5618    75
 2.5668    74
 2.5718    73
 2.5768    80
 2.5818    76
 2.5868    70
 2.5918    76
 2.5968    73
 2.6018    69
 2.6068    63
 2.6118    86
 2.6168    86
 2.6218    80
 2.6268    77
 2.6318    70
 2.6368    66
 2.6418    65
 2.6468    68
 2.6518    65
 2.6568    70
 2.6618    92
 2.6668    77
 2.6718    64
 2.6768    69
 2.6818    58
 2.6868    70
 2.6918    65
 2.6968    58
 2.7018    65
 2.7068    57
 2.7118    55
 2.7168    60
 2.7218    67
 2.7268    62
 2.7318    64
 2.7368    60
 2.7418    73
 2.7468    57
 2.7518    68
 2.7568    58
 2.7618    57
 2.7668    73
 2.7718    57
 2.7768    83
 2.7818    53
 2.7868    56
 2.7918    57
 2.7968    67
 2.8018    61
 2.8068    58
 2.8118    59
 2.8168    58
 2.8218    63
 2.8268    56
 2.8318    55
 2.8367    58
 2.8417    52
 2.8467    53
 2.8517    57
 2.8567    53
 2.8617    66
 2.8667    51
 2.8717    52
 2.8767    67
 2.8817    67
 2.8867    48
 2.8917    58
 2.8967    58
 2.9017    55
 2.9067    61
 2.9117    67
 2.9167    38
 2.9217    72
 2.9267    67
 2.9317    57
 2.9367    66
 2.9417    71
 2.9467    52
 2.9517    55
 2.9567    67
 2.9617    52
 2.9667    66
 2.9717    58
 2.9767    59
 2.9817    54
 2.9867    46
 2.9917    48
 2.9967    58
 3.0017    53
 3.0067    60
 3.0117    46
 3.0167    63
 3.0217    57
 3.0267    48
 3.0317    55
 3.0367    53
 3.0417    55
 3.0467    70
 3.0517    61
 3.0567    56
 3.0617    55
 3.0667    55
 3.0717    61
 3.0767    50
 3.0817    45
 3.0867    50
 3.0917    48
 3.0967    48
 3.1017    63
 3.1067    54
 3.1117    47
 3.1167    46
 3.1217    45
 3.1267    53
 3.1317    53
 3.1367    66
 3.1417    55
 3.1467    63
 3.1517    52
 3.1567    50
 3.1617    53
 3.1666    52
 3.1716    44
 3.1766    37
 3.1816    42
 3.1866    58
 3.1916    59
 3.1966    61
 3.2016    55
 3.2066    60
 3.2116    45
 3.2166    46
 3.2216    57
 3.2266    65
 3.2316    45
 3.2366    65
 3.2416    66
 3.2466    61
 3.2516    71
 3.2566    71
 3.2616    71
 3.2666    74
 3.2716    73
 3.2766    71
 3.2816    88
 3.2866    87
 3.2916    85
 3.2966    94
 3.3016   103
 3.3066    90
 3.3116    89
 3.3166    92
 3.3216    88
 3.3266    89
 3.3316    93
 3.3366    90
 3.3416    97
 3.3466    94
 3.3516    96
 3.3566    83
 3.3616    81
 3.3666    70
 3.3716    55
 3.3766    54
 3.3816    62
 3.3866    49
 3.3916    48
 3.3966    55
 3.4016    50
 3.4066    49
 3.4116    49
 3.4166    40
 3.4216    45
 3.4266    59
 3.4316    49
 3.4366    43
 3.4416    50
 3.4466    44
 3.4516    38
 3.4566    46
 3.4616    55
 3.4666    50
 3.4716    42
 3.4766    47
 3.4816    48
 3.4866    57
 3.4916    53
 3.4966    48
 3.5015    43
 3.5065    54
 3.5115    45
 3.5165    42
 3.5215    50
 3.5265    63
 3.5315    53
 3.5365    54
 3.5415    47
 3.5465    37
 3.5515    47
 3.5565    46
 3.5615    51
 3.5665    50
 3.5715    58
 3.5765    42
 3.5815    43
 3.5865    67
 3.5915    47
 3.5965    55
 3.6015    46
 3.6065    54
 3.6115    51
 3.6165    46
 3.6215    49
 3.6265    40
 3.6315    62
 3.6365    42
 3.6415    62
 3.6465    52
 3.6515    59
 3.6565    43
 3.6615    57
 3.6665    50
 3.6715    59
 3.6765    55
 3.6815    57
 3.6865    58
 3.6915    71
 3.6965    61
 3.7015    61
 3.7065    51
 3.7115    61
 3.7165    61
 3.7215    60
 3.7265    53
 3.7315    55
 3.7365    48
 3.7415    64
 3.7465    44
 3.7515    45
 3.7565    54
 3.7615    68
 3.7665    53
 3.7715    50
 3.7765    42
 3.7815    36
 3.7865    36
 3.7915    39
 3.7965    34
 3.8015    34
 3.8065    39
 3.8115    45
 3.8165    46
 3.8215    34
 3.8265    41
 3.8315    40
 3.8364    36
 3.8414    39
 3.8464    43
 3.8514    42
 3.8564    36
 3.8614    44
 3.8664    36
 3.8714    40
 3.8764    39
 3.8814    28
 3.8864    37
 3.8914    40
 3.8964    42
 3.9014    30
 3.9064    40
 3.9114    51
 3.9164    38
 3.9214    45
 3.9264    39
 3.9314    35
 3.9364    35
 3.9414    48
 3.9464    46
 3.9514    43
 3.9564    30
 3.9614    32
 3.9664    33
 3.9714    40
 3.9764    36
 3.9814    41
 3.9864    40
 3.9914    44
 3.9964    40
 4.0014    29
 4.0064    38
 4.0114    37
 4.0164    37
 4.0214    37
 4.0264    33
 4.0314    43
 4.0364    42
 4.0414    34
 4.0464    35
 4.0514    32
 4.0564    32
 4.0614    33
 4.0664    35
 4.0714    30
 4.0764    29
 4.0814    26
 4.0864    30
 4.0914    38
 4.0964    33
 4.1014    32
 4.1064    27
 4.1114    42
 4.1164    34
 4.1214    32
 4.1264    32
 4.1314    26
 4.1364    37
 4.1414    27
 4.1464    27
 4.1514    34
 4.1564    36
 4.1614    33
 4.1663    35
 4.1713    27
 4.1763    32
 4.1813    31
 4.1863    40
 4.1913    35
 4.1963    35
 4.2013    35
 4.2063    24
 4.2113    34
 4.2163    28
 4.2213    25
 4.2263    34
 4.2313    34
 4.2363    36
 4.2413    31
 4.2463    35
 4.2513    30
 4.2563    34
 4.2613    35
 4.2663    34
 4.2713    42
 4.2763    39
 4.2813    33
 4.2863    37
 4.2913    33
 4.2963    35
 4.3013    32
 4.3063    27
 4.3113    30
 4.3163    34
 4.3213    31
 4.3263    32
 4.3313    36
 4.3363    29
 4.3413    33
 4.3463    34
 4.3513    27
 4.3563    34
 4.3613    38
 4.3663    32
 4.3713    35
 4.3763    32
 4.3813    29
 4.3863    32
 4.3913    41
 4.3963    32
 4.4013    33
 4.4063    32
 4.4113    33
 4.4163    35
 4.4213    32
 4.4263    30
 4.4313    38
 4.4363    26
 4.4413    26
 4.4463    32
 4.4513    41
 4.4563    35
 4.4613    40
 4.4663    30
 4.4713    28
 4.4763    32
 4.4813    30
 4.4863    35
 4.4913    30
 4.4963    28
 4.5012    38
 4.5062    41
 4.5112    36
 4.5162    33
 4.5212    37
 4.5262    33
 4.5312    29
 4.5362    34
 4.5412    44
 4.5462    36
 4.5512    33
 4.5562    38
 4.5612    32
 4.5662    26
 4.5712    24
 4.5762    26
 4.5812    29
 4.5862    26
 4.5912    28
 4.5962    29
 4.6012    38
 4.6062    34
 4.6112    31
 4.6162    31
 4.6212    24
 4.6262    23
 4.6312    28
 4.6362    29
 4.6412    28
 4.6462    30
 4.6512    29
 4.6562    32
 4.6612    31
 4.6662    27
 4.6712    21
 4.6762    25
 4.6812    28
 4.6862    28
 4.6912    32
 4.6962    36
 4.7012    37
 4.7062    34
 4.7112    28
 4.7162    25
 4.7212    23
 4.7262    24
 4.7312    28
 4.7362    31
 4.7412    28
 4.7462    29
 4.7512    28
 4.7562    20
 4.7612    20
 4.7662    23
 4.7712    27
 4.7762    32
 4.7812    26
 4.7862    26
 4.7912    30
 4.7962    26
 4.8012    28
 4.8062    29
 4.8112    26
 4.8162    29
 4.8212    33
 4.8262    31
 4.8312    27
 4.8361    27
 4.8411    25
 4.8461    25
 4.8511    27
 4.8561    25
 4.8611    25
 4.8661    26
 4.8711    26
 4.8761    28
 4.8811    28
 4.8861    27
 4.8911    29
 4.8961    28
 4.9011    29
 4.9061    28
 4.9111    26
 4.9161    28
 4.9211    30
 4.9261    25
 4.9311    25
 4.9361    31
 4.9411    30
 4.9461    26
 4.9511    22
 4.9561    23
 4.9611    27
 4.9661    27
 4.9711    28
 4.9761    26
 4.9811    25
 4.9861    23
 4.9911    26
 4.9961    30
 5.0011    29
 5.0061    23
 5.0111    24
 5.0161    23
 5.0211    18
 5.0261    21
 5.0311    24
 5.0361    25
 5.0411    27
 5.0461    28
 5.0511    23
 5.0561    22
 5.0611    23
 5.0661    24
 5.0711    24
 5.0761    25
 5.0811    18
 5.0861    18
 5.0911    20
 5.0961    21
 5.1011    24
 5.1061    20
 5.1111    16
 5.1161    18
 5.1211    15
 5.1261    18
 5.1311    21
 5.1361    16
 5.1411    17
 5.1461    23
 5.1511    25
 5.1561    23
 5.1611    23
  5.166    25
  5.171    17
  5.176    14
  5.181    18
  5.186    25
  5.191    24
  5.196    23
  5.201    23
  5.206    21
  5.211    17
  5.216    22
  5.221    27
  5.226    28
  5.231    20
  5.236    18
  5.241    20
  5.246    17
  5.251    21
  5.256    18
  5.261    21
  5.266    21
  5.271    23
  5.276    20
  5.281    15
  5.286    17
  5.291    21
  5.296    30
  5.301    31
  5.306    23
  5.311    24
  5.316    28
  5.321    25
  5.326    18
  5.331    11
  5.336    18
  5.341    23
  5.346    18
  5.351    22
  5.356    23
  5.361    26
  5.366    22
  5.371    21
  5.376    23
  5.381    17
  5.386    13
  5.391    18
  5.396    16
  5.401    19
  5.406    25
  5.411    21
  5.416    22
  5.421    22
  5.426    20
  5.431    17
  5.436    14
  5.441    17
  5.446    21
  5.451    25
  5.456    19
  5.461    22
  5.466    23
  5.471    18
  5.476    20
  5.481    19
  5.486    16
  5.491    13
  5.496    15
 5.5009    21
 5.5059    18
 5.5109    18
 5.5159    16
 5.5209    11
 5.5259    21
 5.5309    18
 5.5359    17
 5.5409    17
 5.5459    15
 5.5509    18
 5.5559    20
 5.5609    22
 5.5659    19
 5.5709    18
 5.5759    25
 5.5809    17
 5.5859    18
 5.5909    15
 5.5959    17
 5.6009    16
 5.6059    20
 5.6109    16
 5.6159    17
 5.6209    19
 5.6259    25
 5.6309    16
 5.6359    13
 5.6409    20
 5.6459    20
 5.6509    16
 5.6559    21
 5.6609    27
 5.6659    15
 5.6709    18
 5.6759    14
 5.6809    15
 5.6859    16
 5.6909    18
 5.6959    18
 5.7009    19
 5.7059    17
 5.7109    21
 5.7159    25
 5.7209    18
 5.7259    18
 5.7309    12
 5.7359    15
 5.7409    16
 5.7459    19
 5.7509    12
 5.7559    18
 5.7609    18
 5.7659    10
 5.7709    18
 5.7759    10
 5.7809    17
 5.7859    19
 5.7909    12
 5.7959    15
 5.8009    17
 5.8059    27
 5.8109    18
 5.8159    17
 5.8209    16
 5.8259    12
 5.8309    17
 5.8358    15
 5.8408    19
 5.8458    25
 5.8508    19
 5.8558    16
 5.8608    22
 5.8658    17
 5.8708    20
 5.8758    20
 5.8808    18
 5.8858    19
 5.8908    14
 5.8958    11
 5.9008    24
 5.9058    13
 5.9108    17
 5.9158    14
 5.9208    29
 5.9258    14
 5.9308    18
 5.9358    23
 5.9408    15
 5.9458    13
 5.9508    12
 5.9558    16
 5.9608    14
 5.9658    16
 5.9708    17
 5.9758    10
 5.9808    19
 5.9858    10
 5.9908    20
 5.9958    13
 6.0008    17
 6.0058    15
 6.0108    25
 6.0158     9
 6.0208    26
 6.0258    14
 6.0308     6
 6.0358    15
 6.0408    18
 6.0458    11
 6.0508     9
 6.0558    14
 6.0608    18
 6.0658    14
 6.0708    15
 6.0758    13
 6.0808     7
 6.0858    15
 6.0908    16
 6.0958    16
 6.1008    13
 6.1058    14
 6.1108    16
 6.1158    22
 6.1208    10
 6.1258    13
 6.1308    10
 6.1358    17
 6.1408     9
 6.1458    14
 6.1508    17
 6.1558    13
 6.1608    11
 6.1657    14
 6.1707    15
 6.1757    10
 6.1807    14
 6.1857    21
 6.1907    20
 6.1957    16
 6.2007    20
 6.2057    14
 6.2107     7
 6.2157    19
 6.2207    12
 6.2257    20
 6.2307    21
 6.2357     3
 6.2407    14
 6.2457    18
 6.2507    11
 6.2557    18
 6.2607    13
 6.2657    15
 6.2707    21
 6.2757    17
 6.2807    22
 6.2857    10
 6.2907    21
 6.2957    27
 6.3007    25
 6.3057    23
 6.3107    32
 6.3157    32
 6.3207    30
 6.3257    32
 6.3307    25
 6.3357    30
 6.3407    45
 6.3457    39
 6.3507    35
 6.3557    33
 6.3607    56
 6.3657    46
 6.3707    59
 6.3757    63
 6.3807    50
 6.3857    71
 6.3907    63
 6.3957    56
 6.4007    45
 6.4057    53
 6.4107    60
 6.4157    65
 6.4207    61
 6.4257    52
 6.4307    40
 6.4357    43
 6.4407    51
 6.4457    47
 6.4507    49
 6.4557    42
 6.4607    26
 6.4657    32
 6.4707    35
 6.4757    21
 6.4807    30
 6.4857    21
 6.4907    35
 6.4957    17
 6.5006    25
 6.5056    19
 6.5106    19
 6.5156    17
 6.5206    11
 6.5256    12
 6.5306    22
 6.5356    13
 6.5406    15
 6.5456    14
 6.5506    10
 6.5556    10
 6.5606     7
 6.5656    14
 6.5706    14
 6.5756    10
 6.5806    11
 6.5856    14
 6.5906    12
 6.5956    17
 6.6006    15
 6.6056     5
 6.6106     9
 6.6156     9
 6.6206     6
 6.6256    10
 6.6306     7
 6.6356     8
 6.6406    12
 6.6456    10
 6.6506    17
 6.6556    12
 6.6606     7
 6.6656    11
 6.6706    10
 6.6756     9
 6.6806    10
 6.6856     7
 6.6906    10
 6.6956    14
 6.7006     7
 6.7056     9
 6.7106    10
 6.7156     7
 6.7206     9
 6.7256     7
 6.7306    13
 6.7356    12
 6.7406    11
 6.7456    11
 6.7506    13
 6.7556     8
 6.7606    14
 6.7656    10
 6.7706    14
 6.7756    16
 6.7806    10
 6.7856    10
 6.7906    13
 6.7956     5
 6.8006    10
 6.8056     9
 6.8106    11
 6.8156    11
 6.8206    17
 6.8256    12
 6.8306     9
 6.8355     9
 6.8405    14
 6.8455     7
 6.8505    19
 6.8555    11
 6.8605     9
 6.8655    10
 6.8705     7
 6.8755     4
 6.8805    10
 6.8855     6
 6.8905     7
 6.8955     9
 6.9005     5
 6.9055    10
 6.9105     7
 6.9155    15
 6.9205    10
 6.9255    10
 6.9305     7
 6.9355    15
 6.9405    13
 6.9455     6
 6.9505     6
 6.9555     9
 6.9605    11
 6.9655    12
 6.9705    11
 6.9755     8
 6.9805    12
 6.9855     9
 6.9905    17
 6.9955    12
 7.0005     8
 7.0055    14
 7.0105    18
 7.0155    26
 7.0205    16
 7.0255    15
 7.0305    16
 7.0355    13
 7.0405    12
 7.0455    18
 7.0505    18
 7.0555    15
 7.0605    17
 7.0655    11
 7.0705     9
 7.0755    19
 7.0805    14
 7.0855    17
 7.0905     9
 7.0955    14
 7.1005    15
 7.1055    13
 7.1105     5
 7.1155    12
 7.1205    14
 7.1255    10
 7.1305    10
 7.1355     9
 7.1405    12
 7.1455     5
 7.1505     6
 7.1555    13
 7.1605     9
 7.1654    10
 7.1704     8
 7.1754    12
 7.1804    11
 7.1854    19
 7.1904    13
 7.1954     8
 7.2004     6
 7.2054     5
 7.2104     7
 7.2154     8
 7.2204     8
 7.2254     5
 7.2304     6
 7.2354     7
 7.2404    12
 7.2454     9
 7.2504    15
 7.2554     8
 7.2604    10
 7.2654     2
 7.2704    11
 7.2754     9
 7.2804     7
 7.2854    10
 7.2904     4
 7.2954     7
 7.3004    10
 7.3054     3
 7.3104    13
 7.3154    12
 7.3204     5
 7.3254     5
 7.3304     6
 7.3354    14
 7.3404     6
 7.3454     5
 7.3504     5
 7.3554     2
 7.3604     5
 7.3654     6
 7.3704     5
 7.3754     8
 7.3804     6
 7.3854     8
 7.3904     5
 7.3954    13
 7.4004     4
 7.4054     5
 7.4104    10
 7.4154     5
 7.4204     7
 7.4254     6
 7.4304     7
 7.4354     5
 7.4404     7
 7.4454     8
 7.4504     8
 7.4554    19
 7.4604     4
 7.4654    11
 7.4704    11
 7.4754     8
 7.4804     6
 7.4854    13
 7.4904     8
 7.4954     8
 7.5003     7
 7.5053     8
 7.5103     8
 7.5153     7
 7.5203    12
 7.5253     6
 7.5303     6
 7.5353     4
 7.5403     5
 7.5453     5
 7.5503     6
 7.5553     6
 7.5603     6
 7.5653     9
 7.5703     7
 7.5753     8
 7.5803     5
 7.5853     5
 7.5903    10
 7.5953     3
 7.6003     4
 7.6053     8
 7.6103     6
 7.6153     9
 7.6203     9
 7.6253     6
 7.6303     9
 7.6353     9
 7.6403     9
 7.6453    10
 7.6503     6
 7.6553     9
 7.6603     5
 7.6653     7
 7.6703     4
 7.6753     7
 7.6803     7
 7.6853     3
 7.6903     6
 7.6953     4
 7.7003     5
 7.7053     7
 7.7103     4
 7.7153    10
 7.7203     4
 7.7253     3
 7.7303     3
 7.7353     7
 7.7403     9
 7.7453     4
 7.7503     5
 7.7553     5
 7.7603     7
 7.7653     4
 7.7703     5
 7.7753     8
 7.7803     6
 7.7853     3
 7.7903     8
 7.7953     2
 7.8003     8
 7.8053     2
 7.8103     6
 7.8153     7
 7.8203     6
 7.8253     7
 7.8303     6
 7.8352     6
 7.8402     2
 7.8452     4
 7.8502     4
 7.8552    10
 7.8602     8
 7.8652     3
 7.8702     9
 7.8752     5
 7.8802     7
 7.8852     6
 7.8902     7
 7.8952     6
 7.9002     6
 7.9052     3
 7.9102     4
 7.9152     4
 7.9202     7
 7.9252     6
 7.9302     4
 7.9352     3
 7.9402     9
 7.9452     4
 7.9502    10
 7.9552     2
 7.9602     3
 7.9652     9
 7.9702     9
 7.9752     1
 7.9802     6
 7.9852     2
 7.9902     6
 7.9952     7
 8.0002     7
 8.0052     4
 8.0102     4
 8.0152     5
 8.0202     5
 8.0252     7
 8.0302     3
 8.0352     8
 8.0402     7
 8.0452     8
 8.0502     4
 8.0552     2
 8.0602     3
 8.0652     2
 8.0702     7
 8.0752     6
 8.0802     3
 8.0852     3
 8.0902     3
 8.0952     4
 8.1002     3
 8.1052     7
 8.1102     4
 8.1152     1
 8.1202     7
 8.1252    10
 8.1302     7
 8.1352     6
 8.1402     3
 8.1452     6
 8.1502     3
 8.1552     2
 8.1602     3
 8.1651     5
 8.1701     4
 8.1751     6
 8.1801     6
 8.1851     4
 8.1901     5
 8.1951     2
 8.2001     4
 8.2051     4
 8.2101     7
 8.2151     0
 8.2201     5
 8.2251     4
 8.2301     7
 8.2351     4
 8.2401     4
 8.2451     4
 8.2501     7
 8.2551     4
 8.2601     4
 8.2651     7
 8.2701     5
 8.2751     6
 8.2801     0
 8.2851     2
 8.2901     5
 8.2951     7
 8.3001     7
 8.3051     1
 8.3101     7
 8.3151     6
 8.3201    10
 8.3251     2
 8.3301     6
 8.3351     1
 8.3401     7
 8.3451     2
 8.3501     9
 8.3551     5
 8.3601     3
 8.3651     2
 8.3701     4
 8.3751     3
 8.3801     2
 8.3851     0
 8.3901     3
 8.3951     3
 8.4001     1
 8.4051     4
 8.4101     3
 8.4151     2
 8.4201     4
 8.4251     3
 8.4301     1
 8.4351     3
 8.4401     4
 8.4451     4
 8.4501     3
 8.4551     4
 8.4601     7
 8.4651     4
 8.4701     0
 8.4751     3
 8.4801     1
 8.4851     6
 8.4901     3
 8.4951     2
    8.5     6
  8.505     0
   8.51     1
  8.515     2
   8.52     2
  8.525     2
   8.53     3
  8.535     2
   8.54     4
  8.545     1
   8.55     4
  8.555     2
   8.56     4
  8.565     4
   8.57     2
  8.575     1
   8.58     5
  8.585     0
   8.59     1
  8.595     3
    8.6     2
  8.605     6
   8.61     1
  8.615     0
   8.62     1
  8.625     2
   8.63     3
  8.635     2
   8.64     0
  8.645     2
   8.65     6
  8.655     3
   8.66     2
  8.665     0
   8.67     2
  8.675     1
   8.68     4
  8.685     5
   8.69     2
  8.695     3
    8.7     2
  8.705     2
   8.71     5
  8.715     0
   8.72     0
  8.725     2
   8.73     1
  8.735     0
   8.74     2
  8.745     3
   8.75     2
  8.755     1
   8.76     5
  8.765     2
   8.77     1
  8.775     1
   8.78     0
  8.785     4
   8.79     1
  8.795     1
    8.8     1
  8.805     2
   8.81     3
  8.815     1
   8.82     0
  8.825     3
   8.83     2
 8.8349     4
 8.8399     4
 8.8449     5
 8.8499     3
 8.8549     0
 8.8599     0
 8.8649     3
 8.8699     3
 8.8749     2
 8.8799     3
 8.8849     2
 8.8899     5
 8.8949     0
 8.8999     0
 8.9049     2
 8.9099     1
 8.9149     1
 8.9199     1
 8.9249     0
 8.9299     0
 8.9349     1
 8.9399     0
 8.9449     2
 8.9499     4
 8.9549     4
 8.9599     4
 8.9649     4
 8.9699     1
 8.9749     1
 8.9799     3
 8.9849     2
 8.9899     1
 8.9949     2
 8.9999     3
 9.0049     1
 9.0099     2
 9.0149     3
 9.0199     0
 9.0249     0
 9.0299     2
 9.0349     0
 9.0399     4
 9.0449     1
 9.0499     3
 9.0549     0
 9.0599     2
 9.0649     1
 9.0699     2
 9.0749     2
 9.0799     0
 9.0849     0
 9.0899     1
 9.0949     0
 9.0999     0
 9.1049     2
 9.1099     1
 9.1149     1
 9.1199     1
 9.1249     2
 9.1299     0
 9.1349     1
 9.1399     0
 9.1449     1
 9.1499     2
 9.1549     1
 9.1599     0
 9.1648     0
 9.1698     0
 9.1748     1
 9.1798     1
 9.1848     1
 9.1898     1
 9.1948     0
 9.1998     0
 9.2048     0
 9.2098     1
 9.2148     0
 9.2198     1
 9.2248     0
 9.2298     1
 9.2348     1
 9.2398     0
 9.2448     1
 9.2498     0
 9.2548     0
 9.2598     1
 9.2648     1
 9.2698     1
 9.2748     0
 9.2798     1
 9.2848     0
 9.2898     1
 9.2948     0
 9.2998     0
 9.3048     0
 9.3098     1
 9.3148     1
 9.3198     1
 9.3248     0
 9.3298     0
 9.3348     0
 9.3398     0
 9.3448     0
 9.3498     0
 9.3548     0
 9.3598     0
 9.3648     0
 9.3698     0
 9.3748     0
 9.3798     0
 9.3848     0
 9.3898     0
 9.3948     0
 9.3998     0
 9.4048     0
 9.4098     0
 9.4148     0
 9.4198     0
 9.4248     0
 9.4298     1
 9.4348     0
 9.4398     0
 9.4448     0
 9.4498     0
 9.4548     0
 9.4598     0
 9.4648     0
 9.4698     0
 9.4748     0
 9.4798     0
 9.4848     0
 9.4898     0
 9.4948     0
 9.4997     0
 9.5047     0
 9.5097     0
 9.5147     0
 9.5197     0
 9.5247     0
 9.5297     0
 9.5347     0
 9.5397     0
 9.5447     0
 9.5497     0
 9.5547     0
 9.5597     0
 9.5647     0
 9.5697     0
 9.5747     0
 9.5797     0
 9.5847     0
 9.5897     0
 9.5947     0
 9.5997     0
 9.6047     0
 9.6097     0
 9.6147     1
 9.6197     1
 9.6247     0
 9.6297     0
 9.6347     0
 9.6397     0
 9.6447     1
 9.6497     0
 9.6547     0
 9.6597     0
 9.6647     0
 9.6697     0
 9.6747     0
 9.6797     0
 9.6847     0
 9.6897     0
 9.6947     0
 9.6997     0
 9.7047     0
 9.7097     0
 9.7147     0
 9.7197     0
 9.7247     0
 9.7297     0
 9.7347     0
