Bruker Nano GmbH Berlin, Germany
Esprit 2.x

Date: 8/21/2023 3:47:02 PM
Real time: 57510
Life time: 57041
Pulse density: 6183

Primary energy: 10
Beam current: -1
Take off angle: 35
Tilt angle: 0
Azimut angle: 45

Detector type: Custom type
Window type: slew AP3.3
Detector thickness: 0.45
Si dead layer:0

Calibration, lin.: 4.998
Calibration, abs.: -477.257
Mn FWHM: 124.4
Fano factor: 0.109
Channels: 2017

Energy Counts
-0.4773     0
-0.4723     0
-0.4673     0
-0.4623     0
-0.4573     0
-0.4523     0
-0.4473     0
-0.4423     0
-0.4373     0
-0.4323     0
-0.4273     0
-0.4223     0
-0.4173     0
-0.4123     0
-0.4073     0
-0.4023     0
-0.3973     0
-0.3923     0
-0.3873     0
-0.3823     0
-0.3773     0
-0.3723     0
-0.3673     0
-0.3623     0
-0.3573     0
-0.3523     0
-0.3473     0
-0.3423     0
-0.3373     0
-0.3323     0
-0.3273     0
-0.3223     0
-0.3173     0
-0.3123     0
-0.3073     0
-0.3023     0
-0.2973     0
-0.2923     0
-0.2873     0
-0.2823     0
-0.2773     0
-0.2723     0
-0.2673     0
-0.2623     0
-0.2573     0
-0.2523     0
-0.2473     0
-0.2423     0
-0.2373     0
-0.2323     0
-0.2273     0
-0.2223     0
-0.2173     0
-0.2123     0
-0.2073     0
-0.2023     0
-0.1973     0
-0.1923     0
-0.1873     0
-0.1823     0
-0.1773     0
-0.1723     0
-0.1673     0
-0.1624     0
-0.1574     0
-0.1524     0
-0.1474     0
-0.1424     0
-0.1374     0
-0.1324     0
-0.1274     0
-0.1224     0
-0.1174     0
-0.1124     0
-0.1074     0
-0.1024     0
-0.0974     0
-0.0924     0
-0.0874     0
-0.0824     0
-0.0774     0
-0.0724     0
-0.0674     5
-0.0624     9
-0.0574    32
-0.0524    75
-0.0474   155
-0.0424   333
-0.0374   607
-0.0324  1134
-0.0274  1895
-0.0224  2805
-0.0174  3933
-0.0124  5080
-0.0074  5851
-0.0024  6422
 0.0026  6392
 0.0076  5926
 0.0126  5046
 0.0176  3850
 0.0226  2854
 0.0276  1942
 0.0326  1209
 0.0376   650
 0.0426   366
 0.0476   148
 0.0526    76
 0.0576    34
 0.0626    16
 0.0676    10
 0.0726     1
 0.0776     0
 0.0826     2
 0.0876     0
 0.0926     0
 0.0976     1
 0.1026     1
 0.1076     0
 0.1126     1
 0.1176     0
 0.1226     7
 0.1276    67
 0.1326   128
 0.1376   122
 0.1426   111
 0.1476    91
 0.1526    81
 0.1576    75
 0.1626    71
 0.1675    74
 0.1725    75
 0.1775    91
 0.1825    93
 0.1875    97
 0.1925   106
 0.1975   115
 0.2025   102
 0.2075   115
 0.2125   129
 0.2175   138
 0.2225   147
 0.2275   156
 0.2325   206
 0.2375   278
 0.2425   340
 0.2475   424
 0.2525   497
 0.2575   543
 0.2625   631
 0.2675   712
 0.2725   720
 0.2775   713
 0.2825   679
 0.2875   593
 0.2925   529
 0.2975   478
 0.3025   402
 0.3075   300
 0.3125   251
 0.3175   202
 0.3225   140
 0.3275   117
 0.3325   117
 0.3375   113
 0.3425   115
 0.3475   130
 0.3525   132
 0.3575   125
 0.3625   138
 0.3675   146
 0.3725   160
 0.3775   186
 0.3825   187
 0.3875   172
 0.3925   168
 0.3975   188
 0.4025   207
 0.4075   209
 0.4125   243
 0.4175   264
 0.4225   289
 0.4275   300
 0.4325   287
 0.4375   327
 0.4425   370
 0.4475   446
 0.4525   532
 0.4575   657
 0.4625   827
 0.4675  1156
 0.4725  1606
 0.4775  2164
 0.4825  2882
 0.4875  3847
 0.4925  5027
 0.4975  6265
 0.5024  7819
 0.5074  9163
 0.5124 10276
 0.5174 11205
 0.5224 11676
 0.5274 11721
 0.5324 11228
 0.5374 10332
 0.5424  9033
 0.5474  7646
 0.5524  6029
 0.5574  4704
 0.5624  3437
 0.5674  2413
 0.5724  1722
 0.5774  1144
 0.5824   823
 0.5874   539
 0.5924   403
 0.5974   363
 0.6024   312
 0.6074   279
 0.6124   302
 0.6174   300
 0.6224   327
 0.6274   282
 0.6324   259
 0.6374   268
 0.6424   271
 0.6474   251
 0.6524   263
 0.6574   249
 0.6624   315
 0.6674   362
 0.6724   420
 0.6774   429
 0.6824   523
 0.6874   602
 0.6924   674
 0.6974   723
 0.7024   778
 0.7074   837
 0.7124   863
 0.7174   842
 0.7224   732
 0.7274   709
 0.7324   609
 0.7374   591
 0.7424   505
 0.7474   414
 0.7524   327
 0.7574   298
 0.7624   248
 0.7674   221
 0.7724   179
 0.7774   176
 0.7824   203
 0.7874   154
 0.7924   194
 0.7974   143
 0.8024   155
 0.8074   155
 0.8124   133
 0.8174   157
 0.8224   139
 0.8274   151
 0.8324   153
 0.8373   144
 0.8423   160
 0.8473   162
 0.8523   143
 0.8573   133
 0.8623   151
 0.8673   163
 0.8723   147
 0.8773   165
 0.8823   148
 0.8873   141
 0.8923   129
 0.8973   154
 0.9023   169
 0.9073   145
 0.9123   155
 0.9173   143
 0.9223   148
 0.9273   162
 0.9323   156
 0.9373   160
 0.9423   157
 0.9473   138
 0.9523   163
 0.9573   164
 0.9623   167
 0.9673   172
 0.9723   172
 0.9773   204
 0.9823   201
 0.9873   181
 0.9923   209
 0.9973   198
 1.0023   214
 1.0073   263
 1.0123   247
 1.0173   233
 1.0223   240
 1.0273   277
 1.0323   287
 1.0373   304
 1.0423   286
 1.0473   277
 1.0523   269
 1.0573   277
 1.0623   267
 1.0673   240
 1.0723   242
 1.0773   258
 1.0823   242
 1.0873   163
 1.0923   180
 1.0973   175
 1.1023   181
 1.1073   173
 1.1123   170
 1.1173   140
 1.1223   161
 1.1273   167
 1.1323   160
 1.1373   171
 1.1423   149
 1.1473   148
 1.1523   156
 1.1573   145
 1.1623   152
 1.1672   163
 1.1722   181
 1.1772   187
 1.1822   160
 1.1872   152
 1.1922   165
 1.1972   159
 1.2022   176
 1.2072   190
 1.2122   187
 1.2172   196
 1.2222   208
 1.2272   234
 1.2322   252
 1.2372   240
 1.2422   243
 1.2472   222
 1.2522   267
 1.2572   248
 1.2622   270
 1.2672   245
 1.2722   280
 1.2772   266
 1.2822   227
 1.2872   241
 1.2922   225
 1.2972   204
 1.3022   194
 1.3072   184
 1.3122   182
 1.3172   182
 1.3222   173
 1.3272   177
 1.3322   170
 1.3372   184
 1.3422   152
 1.3472   147
 1.3522   149
 1.3572   172
 1.3622   162
 1.3672   147
 1.3722   146
 1.3772   159
 1.3822   143
 1.3872   158
 1.3922   163
 1.3972   165
 1.4022   152
 1.4072   171
 1.4122   178
 1.4172   195
 1.4222   208
 1.4272   202
 1.4322   232
 1.4372   267
 1.4422   312
 1.4472   338
 1.4522   373
 1.4572   415
 1.4622   476
 1.4672   492
 1.4722   546
 1.4772   598
 1.4822   606
 1.4872   648
 1.4922   663
 1.4972   633
 1.5021   607
 1.5071   619
 1.5121   537
 1.5171   498
 1.5221   448
 1.5271   384
 1.5321   377
 1.5371   306
 1.5421   271
 1.5471   221
 1.5521   244
 1.5571   202
 1.5621   176
 1.5671   179
 1.5721   171
 1.5771   163
 1.5821   167
 1.5871   179
 1.5921   150
 1.5971   142
 1.6021   143
 1.6071   168
 1.6121   146
 1.6171   145
 1.6221   160
 1.6271   163
 1.6321   145
 1.6371   156
 1.6421   177
 1.6471   208
 1.6521   249
 1.6571   310
 1.6621   386
 1.6671   509
 1.6721   657
 1.6771   854
 1.6821  1089
 1.6871  1359
 1.6921  1697
 1.6971  2059
 1.7021  2540
 1.7071  2950
 1.7121  3506
 1.7171  4019
 1.7221  4479
 1.7271  4829
 1.7321  5139
 1.7371  5324
 1.7421  5470
 1.7471  5352
 1.7521  5201
 1.7571  4991
 1.7621  4614
 1.7671  4181
 1.7721  3717
 1.7771  3272
 1.7821  2778
 1.7871  2342
 1.7921  1944
 1.7971  1592
 1.8021  1278
 1.8071  1062
 1.8121   815
 1.8171   665
 1.8221   592
 1.8271   504
 1.8321   436
  1.837   383
  1.842   348
  1.847   308
  1.852   277
  1.857   259
  1.862   242
  1.867   238
  1.872   205
  1.877   188
  1.882   184
  1.887   167
  1.892   143
  1.897   132
  1.902   121
  1.907   120
  1.912   106
  1.917    93
  1.922    93
  1.927   101
  1.932   101
  1.937   104
  1.942   109
  1.947   105
  1.952    99
  1.957   116
  1.962   118
  1.967   120
  1.972   129
  1.977   122
  1.982   130
  1.987   154
  1.992   164
  1.997   165
  2.002   166
  2.007   158
  2.012   153
  2.017   154
  2.022   151
  2.027   162
  2.032   152
  2.037   143
  2.042   143
  2.047   141
  2.052   140
  2.057   134
  2.062   121
  2.067   110
  2.072   108
  2.077    96
  2.082    89
  2.087    85
  2.092    88
  2.097    91
  2.102    92
  2.107    85
  2.112    88
  2.117    90
  2.122    80
  2.127    87
  2.132    98
  2.137    85
  2.142    80
  2.147    81
  2.152    80
  2.157    86
  2.162    83
 2.1669    77
 2.1719    84
 2.1769    84
 2.1819    80
 2.1869    79
 2.1919    81
 2.1969    75
 2.2019    88
 2.2069    91
 2.2119    77
 2.2169    78
 2.2219    80
 2.2269    82
 2.2319    87
 2.2369    88
 2.2419    89
 2.2469    85
 2.2519    86
 2.2569    86
 2.2619    83
 2.2669    92
 2.2719   102
 2.2769    90
 2.2819    87
 2.2869    86
 2.2919    87
 2.2969    96
 2.3019    86
 2.3069    91
 2.3119   101
 2.3169    99
 2.3219    94
 2.3269   102
 2.3319   114
 2.3369    95
 2.3419   102
 2.3469   102
 2.3519    92
 2.3569    97
 2.3619    90
 2.3669    99
 2.3719   107
 2.3769    95
 2.3819    92
 2.3869    94
 2.3919    95
 2.3969    96
 2.4019    93
 2.4069    92
 2.4119    88
 2.4169    86
 2.4219    85
 2.4269    82
 2.4319    84
 2.4369    66
 2.4419    80
 2.4469    85
 2.4519    99
 2.4569    77
 2.4619    91
 2.4669    90
 2.4719    88
 2.4769    89
 2.4819    89
 2.4869    88
 2.4919    83
 2.4969    65
 2.5018    77
 2.5068    70
 2.5118    83
 2.5168    77
 2.5218    66
 2.5268    74
 2.5318    72
 2.5368    55
 2.5418    72
 2.5468    76
 2.5518    78
 2.5568    67
 2.5618    69
 2.5668    67
 2.5718    75
 2.5768    82
 2.5818    74
 2.5868    65
 2.5918    70
 2.5968    81
 2.6018    72
 2.6068    91
 2.6118    76
 2.6168    73
 2.6218    73
 2.6268    94
 2.6318    90
 2.6368    87
 2.6418    77
 2.6468    86
 2.6518    78
 2.6568    72
 2.6618    79
 2.6668    69
 2.6718    60
 2.6768    63
 2.6818    66
 2.6868    66
 2.6918    80
 2.6968    77
 2.7018    76
 2.7068    69
 2.7118    62
 2.7168    64
 2.7218    58
 2.7268    67
 2.7318    69
 2.7368    68
 2.7418    66
 2.7468    64
 2.7518    54
 2.7568    71
 2.7618    62
 2.7668    65
 2.7718    66
 2.7768    68
 2.7818    58
 2.7868    73
 2.7918    76
 2.7968    74
 2.8018    56
 2.8068    48
 2.8118    59
 2.8168    51
 2.8218    46
 2.8268    77
 2.8318    62
 2.8367    60
 2.8417    60
 2.8467    66
 2.8517    49
 2.8567    54
 2.8617    59
 2.8667    56
 2.8717    50
 2.8767    58
 2.8817    49
 2.8867    51
 2.8917    64
 2.8967    62
 2.9017    57
 2.9067    50
 2.9117    50
 2.9167    64
 2.9217    49
 2.9267    43
 2.9317    45
 2.9367    63
 2.9417    60
 2.9467    50
 2.9517    64
 2.9567    67
 2.9617    61
 2.9667    55
 2.9717    58
 2.9767    62
 2.9817    58
 2.9867    61
 2.9917    62
 2.9967    55
 3.0017    48
 3.0067    48
 3.0117    52
 3.0167    47
 3.0217    54
 3.0267    53
 3.0317    55
 3.0367    52
 3.0417    40
 3.0467    41
 3.0517    55
 3.0567    46
 3.0617    58
 3.0667    53
 3.0717    48
 3.0767    46
 3.0817    47
 3.0867    55
 3.0917    61
 3.0967    37
 3.1017    53
 3.1067    45
 3.1117    50
 3.1167    48
 3.1217    49
 3.1267    52
 3.1317    53
 3.1367    49
 3.1417    59
 3.1467    39
 3.1517    48
 3.1567    42
 3.1617    41
 3.1666    49
 3.1716    53
 3.1766    55
 3.1816    59
 3.1866    66
 3.1916    51
 3.1966    56
 3.2016    54
 3.2066    42
 3.2116    47
 3.2166    50
 3.2216    61
 3.2266    58
 3.2316    49
 3.2366    48
 3.2416    62
 3.2466    61
 3.2516    76
 3.2566    67
 3.2616    57
 3.2666    73
 3.2716    64
 3.2766    62
 3.2816    55
 3.2866    75
 3.2916    71
 3.2966    73
 3.3016    85
 3.3066    80
 3.3116    81
 3.3166    88
 3.3216    83
 3.3266    64
 3.3316    62
 3.3366    69
 3.3416    77
 3.3466    78
 3.3516    59
 3.3566    65
 3.3616    59
 3.3666    51
 3.3716    67
 3.3766    50
 3.3816    49
 3.3866    49
 3.3916    48
 3.3966    51
 3.4016    43
 3.4066    59
 3.4116    64
 3.4166    44
 3.4216    41
 3.4266    39
 3.4316    45
 3.4366    38
 3.4416    44
 3.4466    60
 3.4516    43
 3.4566    50
 3.4616    44
 3.4666    43
 3.4716    54
 3.4766    47
 3.4816    40
 3.4866    38
 3.4916    43
 3.4966    36
 3.5015    39
 3.5065    45
 3.5115    47
 3.5165    42
 3.5215    39
 3.5265    37
 3.5315    41
 3.5365    52
 3.5415    44
 3.5465    39
 3.5515    43
 3.5565    39
 3.5615    45
 3.5665    44
 3.5715    37
 3.5765    34
 3.5815    47
 3.5865    31
 3.5915    47
 3.5965    36
 3.6015    47
 3.6065    42
 3.6115    46
 3.6165    44
 3.6215    50
 3.6265    39
 3.6315    40
 3.6365    48
 3.6415    35
 3.6465    47
 3.6515    52
 3.6565    37
 3.6615    66
 3.6665    41
 3.6715    53
 3.6765    43
 3.6815    57
 3.6865    42
 3.6915    44
 3.6965    46
 3.7015    31
 3.7065    51
 3.7115    54
 3.7165    51
 3.7215    34
 3.7265    45
 3.7315    35
 3.7365    31
 3.7415    52
 3.7465    43
 3.7515    36
 3.7565    47
 3.7615    38
 3.7665    45
 3.7715    36
 3.7765    36
 3.7815    53
 3.7865    35
 3.7915    42
 3.7965    30
 3.8015    36
 3.8065    36
 3.8115    30
 3.8165    30
 3.8215    33
 3.8265    45
 3.8315    39
 3.8364    44
 3.8414    48
 3.8464    35
 3.8514    32
 3.8564    42
 3.8614    36
 3.8664    35
 3.8714    39
 3.8764    27
 3.8814    42
 3.8864    32
 3.8914    32
 3.8964    35
 3.9014    35
 3.9064    32
 3.9114    27
 3.9164    29
 3.9214    28
 3.9264    38
 3.9314    43
 3.9364    38
 3.9414    29
 3.9464    28
 3.9514    41
 3.9564    39
 3.9614    46
 3.9664    40
 3.9714    39
 3.9764    38
 3.9814    39
 3.9864    30
 3.9914    40
 3.9964    27
 4.0014    40
 4.0064    37
 4.0114    36
 4.0164    36
 4.0214    31
 4.0264    23
 4.0314    23
 4.0364    34
 4.0414    47
 4.0464    47
 4.0514    31
 4.0564    27
 4.0614    25
 4.0664    28
 4.0714    39
 4.0764    35
 4.0814    29
 4.0864    32
 4.0914    33
 4.0964    37
 4.1014    32
 4.1064    34
 4.1114    33
 4.1164    28
 4.1214    37
 4.1264    30
 4.1314    28
 4.1364    36
 4.1414    38
 4.1464    36
 4.1514    31
 4.1564    30
 4.1614    32
 4.1663    30
 4.1713    40
 4.1763    28
 4.1813    29
 4.1863    29
 4.1913    23
 4.1963    22
 4.2013    30
 4.2063    25
 4.2113    32
 4.2163    34
 4.2213    33
 4.2263    26
 4.2313    29
 4.2363    27
 4.2413    29
 4.2463    26
 4.2513    31
 4.2563    32
 4.2613    27
 4.2663    27
 4.2713    30
 4.2763    30
 4.2813    28
 4.2863    25
 4.2913    27
 4.2963    28
 4.3013    32
 4.3063    29
 4.3113    32
 4.3163    30
 4.3213    23
 4.3263    35
 4.3313    26
 4.3363    23
 4.3413    20
 4.3463    20
 4.3513    26
 4.3563    27
 4.3613    31
 4.3663    30
 4.3713    26
 4.3763    31
 4.3813    33
 4.3863    34
 4.3913    29
 4.3963    33
 4.4013    30
 4.4063    22
 4.4113    26
 4.4163    28
 4.4213    21
 4.4263    21
 4.4313    28
 4.4363    26
 4.4413    29
 4.4463    32
 4.4513    33
 4.4563    37
 4.4613    31
 4.4663    27
 4.4713    37
 4.4763    30
 4.4813    37
 4.4863    34
 4.4913    31
 4.4963    32
 4.5012    32
 4.5062    28
 4.5112    31
 4.5162    30
 4.5212    26
 4.5262    30
 4.5312    36
 4.5362    30
 4.5412    31
 4.5462    30
 4.5512    26
 4.5562    31
 4.5612    24
 4.5662    20
 4.5712    22
 4.5762    25
 4.5812    30
 4.5862    25
 4.5912    26
 4.5962    32
 4.6012    33
 4.6062    27
 4.6112    27
 4.6162    30
 4.6212    30
 4.6262    25
 4.6312    27
 4.6362    33
 4.6412    27
 4.6462    20
 4.6512    24
 4.6562    27
 4.6612    29
 4.6662    23
 4.6712    25
 4.6762    25
 4.6812    20
 4.6862    23
 4.6912    25
 4.6962    30
 4.7012    27
 4.7062    21
 4.7112    24
 4.7162    25
 4.7212    22
 4.7262    25
 4.7312    26
 4.7362    26
 4.7412    22
 4.7462    20
 4.7512    21
 4.7562    20
 4.7612    23
 4.7662    22
 4.7712    19
 4.7762    21
 4.7812    19
 4.7862    28
 4.7912    32
 4.7962    26
 4.8012    26
 4.8062    23
 4.8112    23
 4.8162    20
 4.8212    20
 4.8262    22
 4.8312    23
 4.8361    21
 4.8411    18
 4.8461    21
 4.8511    22
 4.8561    19
 4.8611    24
 4.8661    26
 4.8711    20
 4.8761    23
 4.8811    19
 4.8861    19
 4.8911    23
 4.8961    23
 4.9011    19
 4.9061    23
 4.9111    27
 4.9161    25
 4.9211    30
 4.9261    22
 4.9311    17
 4.9361    19
 4.9411    15
 4.9461    17
 4.9511    26
 4.9561    26
 4.9611    19
 4.9661    12
 4.9711    17
 4.9761    21
 4.9811    22
 4.9861    25
 4.9911    20
 4.9961    19
 5.0011    20
 5.0061    17
 5.0111    19
 5.0161    23
 5.0211    18
 5.0261    21
 5.0311    22
 5.0361    22
 5.0411    24
 5.0461    21
 5.0511    21
 5.0561    21
 5.0611    20
 5.0661    24
 5.0711    20
 5.0761    14
 5.0811    21
 5.0861    25
 5.0911    23
 5.0961    27
 5.1011    23
 5.1061    26
 5.1111    25
 5.1161    21
 5.1211    19
 5.1261    18
 5.1311    17
 5.1361    20
 5.1411    20
 5.1461    22
 5.1511    21
 5.1561    26
 5.1611    27
  5.166    20
  5.171    20
  5.176    19
  5.181    17
  5.186    13
  5.191    18
  5.196    17
  5.201    10
  5.206    14
  5.211    17
  5.216    16
  5.221    20
  5.226    21
  5.231    23
  5.236    17
  5.241    16
  5.246    16
  5.251    17
  5.256    15
  5.261    15
  5.266    18
  5.271    22
  5.276    21
  5.281    18
  5.286    14
  5.291    18
  5.296    13
  5.301    19
  5.306    19
  5.311    18
  5.316    21
  5.321    12
  5.326    13
  5.331    12
  5.336    14
  5.341    14
  5.346    19
  5.351    15
  5.356    14
  5.361    20
  5.366    18
  5.371    19
  5.376    18
  5.381    18
  5.386    17
  5.391    25
  5.396    15
  5.401    21
  5.406    14
  5.411    18
  5.416    18
  5.421    23
  5.426    21
  5.431    16
  5.436    18
  5.441    19
  5.446    17
  5.451    17
  5.456    15
  5.461    10
  5.466    12
  5.471    13
  5.476     9
  5.481    11
  5.486    16
  5.491    12
  5.496    13
 5.5009    10
 5.5059    18
 5.5109    20
 5.5159    10
 5.5209    15
 5.5259    16
 5.5309    12
 5.5359    15
 5.5409    17
 5.5459    14
 5.5509    17
 5.5559    17
 5.5609    19
 5.5659    20
 5.5709    14
 5.5759    15
 5.5809    12
 5.5859    14
 5.5909    12
 5.5959    18
 5.6009    15
 5.6059    14
 5.6109    15
 5.6159    13
 5.6209    18
 5.6259    16
 5.6309    14
 5.6359    13
 5.6409    17
 5.6459    17
 5.6509    16
 5.6559    11
 5.6609    14
 5.6659    14
 5.6709    20
 5.6759    18
 5.6809    19
 5.6859    14
 5.6909    10
 5.6959    20
 5.7009    24
 5.7059    15
 5.7109    14
 5.7159    10
 5.7209    10
 5.7259    16
 5.7309    13
 5.7359    19
 5.7409    17
 5.7459    13
 5.7509    11
 5.7559    12
 5.7609    13
 5.7659    12
 5.7709    15
 5.7759    17
 5.7809    13
 5.7859    14
 5.7909    10
 5.7959     8
 5.8009    18
 5.8059    11
 5.8109    12
 5.8159    13
 5.8209    10
 5.8259    17
 5.8309    11
 5.8358    16
 5.8408    15
 5.8458    10
 5.8508    12
 5.8558     9
 5.8608    12
 5.8658    14
 5.8708    19
 5.8758     7
 5.8808    10
 5.8858    10
 5.8908    20
 5.8958    17
 5.9008    12
 5.9058    15
 5.9108    17
 5.9158    22
 5.9208    18
 5.9258    17
 5.9308     8
 5.9358    20
 5.9408    12
 5.9458    18
 5.9508    22
 5.9558    11
 5.9608    10
 5.9658    15
 5.9708    12
 5.9758    14
 5.9808    15
 5.9858     9
 5.9908    13
 5.9958    11
 6.0008    11
 6.0058    15
 6.0108     2
 6.0158    10
 6.0208     8
 6.0258    13
 6.0308    13
 6.0358    17
 6.0408    23
 6.0458    14
 6.0508    17
 6.0558    14
 6.0608     9
 6.0658    17
 6.0708    18
 6.0758    12
 6.0808    14
 6.0858     1
 6.0908    16
 6.0958    12
 6.1008    14
 6.1058    17
 6.1108    13
 6.1158    14
 6.1208    11
 6.1258     5
 6.1308    14
 6.1358     9
 6.1408    11
 6.1458    10
 6.1508     9
 6.1558    17
 6.1608    10
 6.1657    13
 6.1707    13
 6.1757    10
 6.1807    19
 6.1857    11
 6.1907    11
 6.1957    12
 6.2007     8
 6.2057    10
 6.2107    15
 6.2157    11
 6.2207    11
 6.2257    15
 6.2307    16
 6.2357     5
 6.2407     9
 6.2457    12
 6.2507    20
 6.2557    12
 6.2607    14
 6.2657    25
 6.2707    11
 6.2757     8
 6.2807    17
 6.2857    22
 6.2907     6
 6.2957    12
 6.3007    17
 6.3057    12
 6.3107    15
 6.3157    18
 6.3207    20
 6.3257    17
 6.3307    19
 6.3357    17
 6.3407    23
 6.3457    20
 6.3507    21
 6.3557    21
 6.3607    27
 6.3657    22
 6.3707    27
 6.3757    30
 6.3807    28
 6.3857    31
 6.3907    28
 6.3957    27
 6.4007    22
 6.4057    23
 6.4107    27
 6.4157    38
 6.4207    26
 6.4257    22
 6.4307    18
 6.4357    29
 6.4407    26
 6.4457    18
 6.4507    23
 6.4557    29
 6.4607    11
 6.4657    17
 6.4707    18
 6.4757    18
 6.4807    16
 6.4857    17
 6.4907    17
 6.4957    12
 6.5006     6
 6.5056     9
 6.5106    13
 6.5156     7
 6.5206    18
 6.5256    18
 6.5306    10
 6.5356    11
 6.5406    11
 6.5456     8
 6.5506    13
 6.5556     7
 6.5606    17
 6.5656     5
 6.5706    12
 6.5756    10
 6.5806    11
 6.5856     5
 6.5906     9
 6.5956     7
 6.6006    11
 6.6056    10
 6.6106     7
 6.6156    14
 6.6206    10
 6.6256     5
 6.6306     9
 6.6356     4
 6.6406     9
 6.6456     7
 6.6506     5
 6.6556    10
 6.6606     8
 6.6656    11
 6.6706     4
 6.6756     6
 6.6806     7
 6.6856     3
 6.6906     8
 6.6956     8
 6.7006    11
 6.7056     3
 6.7106     3
 6.7156     7
 6.7206    14
 6.7256    13
 6.7306     9
 6.7356     8
 6.7406    11
 6.7456     7
 6.7506     7
 6.7556     7
 6.7606    10
 6.7656    11
 6.7706     8
 6.7756     8
 6.7806     9
 6.7856     6
 6.7906    12
 6.7956     7
 6.8006     8
 6.8056     8
 6.8106     8
 6.8156     9
 6.8206     7
 6.8256     8
 6.8306     5
 6.8355     9
 6.8405     9
 6.8455     6
 6.8505     4
 6.8555     8
 6.8605     5
 6.8655    11
 6.8705     7
 6.8755     6
 6.8805     6
 6.8855     8
 6.8905     5
 6.8955     6
 6.9005     4
 6.9055    12
 6.9105     6
 6.9155    11
 6.9205     7
 6.9255     6
 6.9305     3
 6.9355     4
 6.9405     5
 6.9455     6
 6.9505     6
 6.9555     9
 6.9605     6
 6.9655     9
 6.9705     8
 6.9755     8
 6.9805     9
 6.9855     9
 6.9905     9
 6.9955     8
 7.0005     8
 7.0055     5
 7.0105     5
 7.0155     6
 7.0205    10
 7.0255     9
 7.0305    11
 7.0355     9
 7.0405     6
 7.0455    11
 7.0505     8
 7.0555    14
 7.0605    13
 7.0655     6
 7.0705     6
 7.0755     6
 7.0805     9
 7.0855     4
 7.0905    16
 7.0955     9
 7.1005     5
 7.1055    11
 7.1105    14
 7.1155     7
 7.1205     6
 7.1255     6
 7.1305     4
 7.1355     6
 7.1405     4
 7.1455     5
 7.1505     2
 7.1555     5
 7.1605    14
 7.1654     5
 7.1704    13
 7.1754    10
 7.1804     5
 7.1854     4
 7.1904     5
 7.1954     5
 7.2004     6
 7.2054     8
 7.2104     8
 7.2154     4
 7.2204     1
 7.2254     4
 7.2304     5
 7.2354     4
 7.2404     5
 7.2454     9
 7.2504     6
 7.2554     4
 7.2604     6
 7.2654     6
 7.2704     6
 7.2754     5
 7.2804     7
 7.2854     6
 7.2904     2
 7.2954    12
 7.3004     3
 7.3054     4
 7.3104     6
 7.3154     7
 7.3204     2
 7.3254     2
 7.3304     2
 7.3354     6
 7.3404     6
 7.3454     6
 7.3504     6
 7.3554    12
 7.3604     3
 7.3654     8
 7.3704     8
 7.3754     4
 7.3804     3
 7.3854     4
 7.3904     2
 7.3954     3
 7.4004     2
 7.4054     8
 7.4104     4
 7.4154     1
 7.4204     3
 7.4254     5
 7.4304     4
 7.4354     3
 7.4404     3
 7.4454     4
 7.4504     4
 7.4554     5
 7.4604     5
 7.4654     6
 7.4704     3
 7.4754     5
 7.4804     5
 7.4854     6
 7.4904     5
 7.4954     5
 7.5003     3
 7.5053     7
 7.5103     2
 7.5153     5
 7.5203     7
 7.5253     6
 7.5303     5
 7.5353     5
 7.5403     2
 7.5453     6
 7.5503     6
 7.5553     3
 7.5603     6
 7.5653     1
 7.5703     1
 7.5753     9
 7.5803     2
 7.5853     1
 7.5903     8
 7.5953     4
 7.6003     2
 7.6053     3
 7.6103     4
 7.6153     1
 7.6203     6
 7.6253     5
 7.6303     3
 7.6353     8
 7.6403     1
 7.6453     0
 7.6503     5
 7.6553     1
 7.6603     6
 7.6653     4
 7.6703     2
 7.6753     3
 7.6803     1
 7.6853     6
 7.6903     3
 7.6953     0
 7.7003     2
 7.7053     2
 7.7103     2
 7.7153     4
 7.7203     1
 7.7253     4
 7.7303     0
 7.7353     7
 7.7403     3
 7.7453     5
 7.7503     2
 7.7553     2
 7.7603     0
 7.7653     2
 7.7703     5
 7.7753     2
 7.7803     3
 7.7853     4
 7.7903     4
 7.7953     5
 7.8003     1
 7.8053     3
 7.8103     2
 7.8153     2
 7.8203     2
 7.8253     1
 7.8303     3
 7.8352     1
 7.8402     1
 7.8452     2
 7.8502     6
 7.8552     3
 7.8602     0
 7.8652     1
 7.8702     1
 7.8752     5
 7.8802     6
 7.8852     3
 7.8902     1
 7.8952     1
 7.9002     1
 7.9052     0
 7.9102     2
 7.9152     0
 7.9202     4
 7.9252     3
 7.9302     3
 7.9352     0
 7.9402     0
 7.9452     0
 7.9502     5
 7.9552     2
 7.9602     1
 7.9652     2
 7.9702     0
 7.9752     1
 7.9802     0
 7.9852     2
 7.9902     0
 7.9952     1
 8.0002     1
 8.0052     2
 8.0102     0
 8.0152     3
 8.0202     0
 8.0252     3
 8.0302     5
 8.0352     1
 8.0402     2
 8.0452     1
 8.0502     2
 8.0552     2
 8.0602     4
 8.0652     2
 8.0702     0
 8.0752     1
 8.0802     1
 8.0852     0
 8.0902     3
 8.0952     0
 8.1002     1
 8.1052     1
 8.1102     0
 8.1152     0
 8.1202     1
 8.1252     3
 8.1302     0
 8.1352     3
 8.1402     1
 8.1452     1
 8.1502     2
 8.1552     0
 8.1602     0
 8.1651     2
 8.1701     1
 8.1751     2
 8.1801     2
 8.1851     1
 8.1901     3
 8.1951     1
 8.2001     1
 8.2051     3
 8.2101     1
 8.2151     2
 8.2201     0
 8.2251     1
 8.2301     2
 8.2351     1
 8.2401     1
 8.2451     0
 8.2501     0
 8.2551     1
 8.2601     1
 8.2651     0
 8.2701     1
 8.2751     0
 8.2801     3
 8.2851     1
 8.2901     0
 8.2951     1
 8.3001     1
 8.3051     1
 8.3101     0
 8.3151     2
 8.3201     2
 8.3251     3
 8.3301     1
 8.3351     2
 8.3401     2
 8.3451     2
 8.3501     0
 8.3551     0
 8.3601     0
 8.3651     2
 8.3701     0
 8.3751     2
 8.3801     0
 8.3851     1
 8.3901     1
 8.3951     1
 8.4001     3
 8.4051     1
 8.4101     2
 8.4151     2
 8.4201     1
 8.4251     2
 8.4301     1
 8.4351     0
 8.4401     0
 8.4451     0
 8.4501     0
 8.4551     0
 8.4601     1
 8.4651     0
 8.4701     0
 8.4751     1
 8.4801     1
 8.4851     0
 8.4901     2
 8.4951     0
    8.5     2
  8.505     0
   8.51     0
  8.515     2
   8.52     3
  8.525     0
   8.53     1
  8.535     2
   8.54     0
  8.545     2
   8.55     1
  8.555     0
   8.56     0
  8.565     0
   8.57     1
  8.575     2
   8.58     1
  8.585     0
   8.59     2
  8.595     1
    8.6     2
  8.605     0
   8.61     0
  8.615     0
   8.62     2
  8.625     2
   8.63     0
  8.635     0
   8.64     1
  8.645     0
   8.65     0
  8.655     2
   8.66     0
  8.665     0
   8.67     2
  8.675     0
   8.68     1
  8.685     0
   8.69     1
  8.695     0
    8.7     0
  8.705     0
   8.71     0
  8.715     2
   8.72     0
  8.725     1
   8.73     1
  8.735     1
   8.74     0
  8.745     0
   8.75     0
  8.755     0
   8.76     2
  8.765     0
   8.77     1
  8.775     0
   8.78     1
  8.785     1
   8.79     0
  8.795     0
    8.8     0
  8.805     0
   8.81     1
  8.815     0
   8.82     0
  8.825     0
   8.83     0
 8.8349     0
 8.8399     0
 8.8449     0
 8.8499     1
 8.8549     2
 8.8599     2
 8.8649     1
 8.8699     0
 8.8749     0
 8.8799     0
 8.8849     0
 8.8899     1
 8.8949     0
 8.8999     0
 8.9049     0
 8.9099     0
 8.9149     0
 8.9199     0
 8.9249     1
 8.9299     1
 8.9349     0
 8.9399     0
 8.9449     0
 8.9499     0
 8.9549     0
 8.9599     0
 8.9649     0
 8.9699     0
 8.9749     0
 8.9799     1
 8.9849     0
 8.9899     0
 8.9949     0
 8.9999     0
 9.0049     0
 9.0099     1
 9.0149     1
 9.0199     2
 9.0249     0
 9.0299     0
 9.0349     0
 9.0399     1
 9.0449     0
 9.0499     1
 9.0549     0
 9.0599     0
 9.0649     0
 9.0699     0
 9.0749     0
 9.0799     0
 9.0849     0
 9.0899     0
 9.0949     0
 9.0999     0
 9.1049     1
 9.1099     0
 9.1149     0
 9.1199     0
 9.1249     1
 9.1299     1
 9.1349     0
 9.1399     0
 9.1449     0
 9.1499     1
 9.1549     0
 9.1599     0
 9.1648     0
 9.1698     1
 9.1748     0
 9.1798     0
 9.1848     0
 9.1898     0
 9.1948     0
 9.1998     0
 9.2048     0
 9.2098     0
 9.2148     0
 9.2198     0
 9.2248     0
 9.2298     0
 9.2348     0
 9.2398     0
 9.2448     0
 9.2498     0
 9.2548     0
 9.2598     0
 9.2648     0
 9.2698     0
 9.2748     0
 9.2798     0
 9.2848     0
 9.2898     0
 9.2948     0
 9.2998     0
 9.3048     0
 9.3098     0
 9.3148     0
 9.3198     0
 9.3248     0
 9.3298     0
 9.3348     0
 9.3398     0
 9.3448     0
 9.3498     0
 9.3548     0
 9.3598     0
 9.3648     0
 9.3698     0
 9.3748     0
 9.3798     0
 9.3848     0
 9.3898     0
 9.3948     0
 9.3998     0
 9.4048     0
 9.4098     0
 9.4148     0
 9.4198     0
 9.4248     0
 9.4298     0
 9.4348     1
 9.4398     0
 9.4448     0
 9.4498     0
 9.4548     0
 9.4598     0
 9.4648     0
 9.4698     0
 9.4748     0
 9.4798     0
 9.4848     0
 9.4898     0
 9.4948     0
 9.4997     0
 9.5047     0
 9.5097     0
 9.5147     0
 9.5197     0
 9.5247     0
 9.5297     0
 9.5347     0
 9.5397     0
 9.5447     0
 9.5497     0
 9.5547     0
 9.5597     1
 9.5647     0
 9.5697     0
 9.5747     0
 9.5797     0
 9.5847     0
 9.5897     0
 9.5947     0
 9.5997     0
